#  E (eV)   dos(E)     Int dos(E) EFermi =    6.132 eV
  -5.910  0.0000E+00  0.0000E+00
  -5.900  0.2205E-02  0.7348E-05
  -5.890  0.8818E-02  0.5879E-04
  -5.880  0.1984E-01  0.1984E-03
  -5.870  0.4893E-01  0.4771E-03
  -5.860  0.8086E-01  0.1318E-02
  -5.850  0.6491E-01  0.1955E-02
  -5.840  0.7295E-01  0.2643E-02
  -5.830  0.8136E-01  0.3415E-02
  -5.820  0.9015E-01  0.4272E-02
  -5.810  0.9931E-01  0.5219E-02
  -5.800  0.1118E+00  0.6269E-02
  -5.790  0.1232E+00  0.7447E-02
  -5.780  0.1308E+00  0.8720E-02
  -5.770  0.1347E+00  0.1005E-01
  -5.760  0.1277E+00  0.1137E-01
  -5.750  0.1299E+00  0.1265E-01
  -5.740  0.1348E+00  0.1397E-01
  -5.730  0.1401E+00  0.1535E-01
  -5.720  0.1457E+00  0.1678E-01
  -5.710  0.1517E+00  0.1826E-01
  -5.700  0.1579E+00  0.1981E-01
  -5.690  0.1643E+00  0.2142E-01
  -5.680  0.1708E+00  0.2310E-01
  -5.670  0.1772E+00  0.2484E-01
  -5.660  0.1827E+00  0.2664E-01
  -5.650  0.1837E+00  0.2847E-01
  -5.640  0.1868E+00  0.3033E-01
  -5.630  0.1897E+00  0.3221E-01
  -5.620  0.1924E+00  0.3412E-01
  -5.610  0.1949E+00  0.3606E-01
  -5.600  0.1971E+00  0.3802E-01
  -5.590  0.1982E+00  0.3999E-01
  -5.580  0.2003E+00  0.4199E-01
  -5.570  0.2033E+00  0.4400E-01
  -5.560  0.2072E+00  0.4605E-01
  -5.550  0.2119E+00  0.4815E-01
  -5.540  0.2167E+00  0.5029E-01
  -5.530  0.2215E+00  0.5248E-01
  -5.520  0.2264E+00  0.5472E-01
  -5.510  0.2314E+00  0.5701E-01
  -5.500  0.2364E+00  0.5935E-01
  -5.490  0.2411E+00  0.6174E-01
  -5.480  0.2443E+00  0.6417E-01
  -5.470  0.2461E+00  0.6662E-01
  -5.460  0.2464E+00  0.6909E-01
  -5.450  0.2473E+00  0.7155E-01
  -5.440  0.2502E+00  0.7404E-01
  -5.430  0.2527E+00  0.7655E-01
  -5.420  0.2553E+00  0.7910E-01
  -5.410  0.2578E+00  0.8166E-01
  -5.400  0.2604E+00  0.8425E-01
  -5.390  0.2630E+00  0.8687E-01
  -5.380  0.2654E+00  0.8951E-01
  -5.370  0.2678E+00  0.9218E-01
  -5.360  0.2701E+00  0.9487E-01
  -5.350  0.2724E+00  0.9758E-01
  -5.340  0.2754E+00  0.1003E+00
  -5.330  0.2787E+00  0.1031E+00
  -5.320  0.2822E+00  0.1059E+00
  -5.310  0.2859E+00  0.1087E+00
  -5.300  0.2898E+00  0.1116E+00
  -5.290  0.2938E+00  0.1145E+00
  -5.280  0.2978E+00  0.1175E+00
  -5.270  0.3020E+00  0.1205E+00
  -5.260  0.3062E+00  0.1235E+00
  -5.250  0.3084E+00  0.1266E+00
  -5.240  0.3094E+00  0.1297E+00
  -5.230  0.3113E+00  0.1328E+00
  -5.220  0.3130E+00  0.1359E+00
  -5.210  0.3145E+00  0.1391E+00
  -5.200  0.3157E+00  0.1422E+00
  -5.190  0.3170E+00  0.1454E+00
  -5.180  0.3189E+00  0.1485E+00
  -5.170  0.3213E+00  0.1517E+00
  -5.160  0.3241E+00  0.1550E+00
  -5.150  0.3266E+00  0.1582E+00
  -5.140  0.3292E+00  0.1615E+00
  -5.130  0.3318E+00  0.1648E+00
  -5.120  0.3343E+00  0.1681E+00
  -5.110  0.3368E+00  0.1715E+00
  -5.100  0.3394E+00  0.1749E+00
  -5.090  0.3419E+00  0.1783E+00
  -5.080  0.3443E+00  0.1817E+00
  -5.070  0.3468E+00  0.1852E+00
  -5.060  0.3493E+00  0.1887E+00
  -5.050  0.3520E+00  0.1922E+00
  -5.040  0.3550E+00  0.1957E+00
  -5.030  0.3581E+00  0.1993E+00
  -5.020  0.3613E+00  0.2029E+00
  -5.010  0.3647E+00  0.2065E+00
  -5.000  0.3682E+00  0.2102E+00
  -4.990  0.3716E+00  0.2138E+00
  -4.980  0.3746E+00  0.2176E+00
  -4.970  0.3770E+00  0.2213E+00
  -4.960  0.3788E+00  0.2251E+00
  -4.950  0.3796E+00  0.2289E+00
  -4.940  0.3817E+00  0.2327E+00
  -4.930  0.3837E+00  0.2365E+00
  -4.920  0.3857E+00  0.2404E+00
  -4.910  0.3875E+00  0.2443E+00
  -4.900  0.3893E+00  0.2481E+00
  -4.890  0.3911E+00  0.2520E+00
  -4.880  0.3927E+00  0.2560E+00
  -4.870  0.3943E+00  0.2599E+00
  -4.860  0.3963E+00  0.2639E+00
  -4.850  0.3988E+00  0.2678E+00
  -4.840  0.4014E+00  0.2718E+00
  -4.830  0.4039E+00  0.2759E+00
  -4.820  0.4066E+00  0.2799E+00
  -4.810  0.4093E+00  0.2840E+00
  -4.800  0.4119E+00  0.2881E+00
  -4.790  0.4145E+00  0.2922E+00
  -4.780  0.4171E+00  0.2964E+00
  -4.770  0.4197E+00  0.3006E+00
  -4.760  0.4224E+00  0.3048E+00
  -4.750  0.4250E+00  0.3090E+00
  -4.740  0.4277E+00  0.3133E+00
  -4.730  0.4303E+00  0.3176E+00
  -4.720  0.4330E+00  0.3219E+00
  -4.710  0.4356E+00  0.3262E+00
  -4.700  0.4384E+00  0.3306E+00
  -4.690  0.4414E+00  0.3350E+00
  -4.680  0.4445E+00  0.3394E+00
  -4.670  0.4477E+00  0.3439E+00
  -4.660  0.4498E+00  0.3484E+00
  -4.650  0.4518E+00  0.3529E+00
  -4.640  0.4541E+00  0.3574E+00
  -4.630  0.4563E+00  0.3620E+00
  -4.620  0.4585E+00  0.3665E+00
  -4.610  0.4605E+00  0.3711E+00
  -4.600  0.4624E+00  0.3757E+00
  -4.590  0.4645E+00  0.3804E+00
  -4.580  0.4668E+00  0.3850E+00
  -4.570  0.4690E+00  0.3897E+00
  -4.560  0.4713E+00  0.3944E+00
  -4.550  0.4736E+00  0.3991E+00
  -4.540  0.4759E+00  0.4039E+00
  -4.530  0.4781E+00  0.4087E+00
  -4.520  0.4803E+00  0.4135E+00
  -4.510  0.4824E+00  0.4183E+00
  -4.500  0.4846E+00  0.4231E+00
  -4.490  0.4866E+00  0.4280E+00
  -4.480  0.4899E+00  0.4328E+00
  -4.470  0.4926E+00  0.4377E+00
  -4.460  0.4953E+00  0.4427E+00
  -4.450  0.4981E+00  0.4477E+00
  -4.440  0.5010E+00  0.4527E+00
  -4.430  0.5040E+00  0.4577E+00
  -4.420  0.5071E+00  0.4627E+00
  -4.410  0.5101E+00  0.4678E+00
  -4.400  0.5131E+00  0.4729E+00
  -4.390  0.5161E+00  0.4781E+00
  -4.380  0.5192E+00  0.4833E+00
  -4.370  0.5222E+00  0.4885E+00
  -4.360  0.5252E+00  0.4937E+00
  -4.350  0.5283E+00  0.4990E+00
  -4.340  0.5313E+00  0.5043E+00
  -4.330  0.5344E+00  0.5096E+00
  -4.320  0.5373E+00  0.5150E+00
  -4.310  0.5400E+00  0.5203E+00
  -4.300  0.5426E+00  0.5258E+00
  -4.290  0.5446E+00  0.5312E+00
  -4.280  0.5475E+00  0.5367E+00
  -4.270  0.5503E+00  0.5421E+00
  -4.260  0.5532E+00  0.5477E+00
  -4.250  0.5562E+00  0.5532E+00
  -4.240  0.5591E+00  0.5588E+00
  -4.230  0.5621E+00  0.5644E+00
  -4.220  0.5651E+00  0.5700E+00
  -4.210  0.5679E+00  0.5757E+00
  -4.200  0.5709E+00  0.5814E+00
  -4.190  0.5740E+00  0.5871E+00
  -4.180  0.5772E+00  0.5929E+00
  -4.170  0.5805E+00  0.5987E+00
  -4.160  0.5837E+00  0.6045E+00
  -4.150  0.5869E+00  0.6103E+00
  -4.140  0.5901E+00  0.6162E+00
  -4.130  0.5933E+00  0.6221E+00
  -4.120  0.5965E+00  0.6281E+00
  -4.110  0.5997E+00  0.6341E+00
  -4.100  0.6028E+00  0.6401E+00
  -4.090  0.6060E+00  0.6461E+00
  -4.080  0.6107E+00  0.6522E+00
  -4.070  0.6146E+00  0.6583E+00
  -4.060  0.6187E+00  0.6645E+00
  -4.050  0.6229E+00  0.6707E+00
  -4.040  0.6273E+00  0.6769E+00
  -4.030  0.6318E+00  0.6832E+00
  -4.020  0.6363E+00  0.6896E+00
  -4.010  0.6408E+00  0.6960E+00
  -4.000  0.6453E+00  0.7024E+00
  -3.990  0.6499E+00  0.7089E+00
  -3.980  0.6545E+00  0.7154E+00
  -3.970  0.6592E+00  0.7220E+00
  -3.960  0.6640E+00  0.7286E+00
  -3.950  0.6688E+00  0.7352E+00
  -3.940  0.6737E+00  0.7420E+00
  -3.930  0.6783E+00  0.7487E+00
  -3.920  0.6828E+00  0.7555E+00
  -3.910  0.6877E+00  0.7624E+00
  -3.900  0.6931E+00  0.7693E+00
  -3.890  0.6986E+00  0.7762E+00
  -3.880  0.7047E+00  0.7833E+00
  -3.870  0.7112E+00  0.7903E+00
  -3.860  0.7178E+00  0.7975E+00
  -3.850  0.7247E+00  0.8047E+00
  -3.840  0.7319E+00  0.8120E+00
  -3.830  0.7394E+00  0.8193E+00
  -3.820  0.7473E+00  0.8268E+00
  -3.810  0.7558E+00  0.8343E+00
  -3.800  0.7647E+00  0.8419E+00
  -3.790  0.7741E+00  0.8496E+00
  -3.780  0.7840E+00  0.8574E+00
  -3.770  0.7943E+00  0.8653E+00
  -3.760  0.8050E+00  0.8733E+00
  -3.750  0.8161E+00  0.8814E+00
  -3.740  0.8277E+00  0.8896E+00
  -3.730  0.8475E+00  0.8979E+00
  -3.720  0.8930E+00  0.9066E+00
  -3.710  0.9164E+00  0.9157E+00
  -3.700  0.9347E+00  0.9250E+00
  -3.690  0.9474E+00  0.9344E+00
  -3.680  0.9511E+00  0.9439E+00
  -3.670  0.9324E+00  0.9533E+00
  -3.660  0.9280E+00  0.9626E+00
  -3.650  0.9253E+00  0.9719E+00
  -3.640  0.9231E+00  0.9811E+00
  -3.630  0.9214E+00  0.9903E+00
  -3.620  0.9202E+00  0.9995E+00
  -3.610  0.9191E+00  0.1009E+01
  -3.600  0.9177E+00  0.1018E+01
  -3.590  0.9160E+00  0.1027E+01
  -3.580  0.9119E+00  0.1036E+01
  -3.570  0.9044E+00  0.1045E+01
  -3.560  0.9037E+00  0.1054E+01
  -3.550  0.9027E+00  0.1063E+01
  -3.540  0.9009E+00  0.1072E+01
  -3.530  0.9015E+00  0.1081E+01
  -3.520  0.9108E+00  0.1090E+01
  -3.510  0.9099E+00  0.1100E+01
  -3.500  0.9010E+00  0.1109E+01
  -3.490  0.8932E+00  0.1118E+01
  -3.480  0.8864E+00  0.1127E+01
  -3.470  0.8808E+00  0.1135E+01
  -3.460  0.8758E+00  0.1144E+01
  -3.450  0.8697E+00  0.1153E+01
  -3.440  0.8641E+00  0.1162E+01
  -3.430  0.8587E+00  0.1170E+01
  -3.420  0.8536E+00  0.1179E+01
  -3.410  0.8489E+00  0.1187E+01
  -3.400  0.8448E+00  0.1196E+01
  -3.390  0.8410E+00  0.1204E+01
  -3.380  0.8379E+00  0.1213E+01
  -3.370  0.8352E+00  0.1221E+01
  -3.360  0.8323E+00  0.1229E+01
  -3.350  0.8293E+00  0.1238E+01
  -3.340  0.8261E+00  0.1246E+01
  -3.330  0.8228E+00  0.1254E+01
  -3.320  0.8192E+00  0.1262E+01
  -3.310  0.8155E+00  0.1270E+01
  -3.300  0.8118E+00  0.1279E+01
  -3.290  0.8078E+00  0.1287E+01
  -3.280  0.8035E+00  0.1295E+01
  -3.270  0.7992E+00  0.1303E+01
  -3.260  0.7969E+00  0.1311E+01
  -3.250  0.7911E+00  0.1319E+01
  -3.240  0.7861E+00  0.1327E+01
  -3.230  0.7818E+00  0.1334E+01
  -3.220  0.7784E+00  0.1342E+01
  -3.210  0.7754E+00  0.1350E+01
  -3.200  0.7730E+00  0.1358E+01
  -3.190  0.7711E+00  0.1365E+01
  -3.180  0.7697E+00  0.1373E+01
  -3.170  0.7688E+00  0.1381E+01
  -3.160  0.7684E+00  0.1388E+01
  -3.150  0.7618E+00  0.1396E+01
  -3.140  0.7578E+00  0.1404E+01
  -3.130  0.7544E+00  0.1411E+01
  -3.120  0.7513E+00  0.1419E+01
  -3.110  0.7476E+00  0.1426E+01
  -3.100  0.7436E+00  0.1434E+01
  -3.090  0.7395E+00  0.1441E+01
  -3.080  0.7354E+00  0.1449E+01
  -3.070  0.7312E+00  0.1456E+01
  -3.060  0.7269E+00  0.1463E+01
  -3.050  0.7223E+00  0.1470E+01
  -3.040  0.7175E+00  0.1478E+01
  -3.030  0.7129E+00  0.1485E+01
  -3.020  0.7084E+00  0.1492E+01
  -3.010  0.7040E+00  0.1499E+01
  -3.000  0.6998E+00  0.1506E+01
  -2.990  0.6957E+00  0.1513E+01
  -2.980  0.6918E+00  0.1520E+01
  -2.970  0.6876E+00  0.1527E+01
  -2.960  0.6832E+00  0.1534E+01
  -2.950  0.6793E+00  0.1540E+01
  -2.940  0.6757E+00  0.1547E+01
  -2.930  0.6721E+00  0.1554E+01
  -2.920  0.6685E+00  0.1561E+01
  -2.910  0.6649E+00  0.1567E+01
  -2.900  0.6614E+00  0.1574E+01
  -2.890  0.6580E+00  0.1581E+01
  -2.880  0.6554E+00  0.1587E+01
  -2.870  0.6532E+00  0.1594E+01
  -2.860  0.6508E+00  0.1600E+01
  -2.850  0.6480E+00  0.1607E+01
  -2.840  0.6451E+00  0.1613E+01
  -2.830  0.6418E+00  0.1620E+01
  -2.820  0.6382E+00  0.1626E+01
  -2.810  0.6344E+00  0.1632E+01
  -2.800  0.6300E+00  0.1639E+01
  -2.790  0.6245E+00  0.1645E+01
  -2.780  0.6259E+00  0.1651E+01
  -2.770  0.6207E+00  0.1657E+01
  -2.760  0.6158E+00  0.1664E+01
  -2.750  0.6111E+00  0.1670E+01
  -2.740  0.6067E+00  0.1676E+01
  -2.730  0.6026E+00  0.1682E+01
  -2.720  0.5984E+00  0.1688E+01
  -2.710  0.5942E+00  0.1694E+01
  -2.700  0.5900E+00  0.1700E+01
  -2.690  0.5858E+00  0.1706E+01
  -2.680  0.5815E+00  0.1711E+01
  -2.670  0.5772E+00  0.1717E+01
  -2.660  0.5729E+00  0.1723E+01
  -2.650  0.5682E+00  0.1729E+01
  -2.640  0.5637E+00  0.1734E+01
  -2.630  0.5593E+00  0.1740E+01
  -2.620  0.5552E+00  0.1746E+01
  -2.610  0.5512E+00  0.1751E+01
  -2.600  0.5474E+00  0.1757E+01
  -2.590  0.5441E+00  0.1762E+01
  -2.580  0.5412E+00  0.1767E+01
  -2.570  0.5388E+00  0.1773E+01
  -2.560  0.5364E+00  0.1778E+01
  -2.550  0.5342E+00  0.1784E+01
  -2.540  0.5323E+00  0.1789E+01
  -2.530  0.5306E+00  0.1794E+01
  -2.520  0.5284E+00  0.1800E+01
  -2.510  0.5259E+00  0.1805E+01
  -2.500  0.5233E+00  0.1810E+01
  -2.490  0.5208E+00  0.1815E+01
  -2.480  0.5181E+00  0.1820E+01
  -2.470  0.5155E+00  0.1826E+01
  -2.460  0.5129E+00  0.1831E+01
  -2.450  0.5104E+00  0.1836E+01
  -2.440  0.5081E+00  0.1841E+01
  -2.430  0.5016E+00  0.1846E+01
  -2.420  0.4920E+00  0.1851E+01
  -2.410  0.4880E+00  0.1856E+01
  -2.400  0.4842E+00  0.1861E+01
  -2.390  0.4806E+00  0.1866E+01
  -2.380  0.4772E+00  0.1870E+01
  -2.370  0.4740E+00  0.1875E+01
  -2.360  0.4710E+00  0.1880E+01
  -2.350  0.4682E+00  0.1885E+01
  -2.340  0.4655E+00  0.1889E+01
  -2.330  0.4631E+00  0.1894E+01
  -2.320  0.4593E+00  0.1898E+01
  -2.310  0.4548E+00  0.1903E+01
  -2.300  0.4500E+00  0.1908E+01
  -2.290  0.4450E+00  0.1912E+01
  -2.280  0.4394E+00  0.1916E+01
  -2.270  0.4339E+00  0.1921E+01
  -2.260  0.4280E+00  0.1925E+01
  -2.250  0.4217E+00  0.1929E+01
  -2.240  0.4150E+00  0.1934E+01
  -2.230  0.4080E+00  0.1938E+01
  -2.220  0.4000E+00  0.1942E+01
  -2.210  0.3903E+00  0.1946E+01
  -2.200  0.3789E+00  0.1950E+01
  -2.190  0.3662E+00  0.1953E+01
  -2.180  0.3521E+00  0.1957E+01
  -2.170  0.3366E+00  0.1960E+01
  -2.160  0.3198E+00  0.1964E+01
  -2.150  0.3016E+00  0.1967E+01
  -2.140  0.2827E+00  0.1970E+01
  -2.130  0.2637E+00  0.1972E+01
  -2.120  0.2453E+00  0.1975E+01
  -2.110  0.2295E+00  0.1977E+01
  -2.100  0.2143E+00  0.1979E+01
  -2.090  0.1995E+00  0.1982E+01
  -2.080  0.1852E+00  0.1983E+01
  -2.070  0.1713E+00  0.1985E+01
  -2.060  0.1578E+00  0.1987E+01
  -2.050  0.1447E+00  0.1988E+01
  -2.040  0.1320E+00  0.1990E+01
  -2.030  0.1207E+00  0.1991E+01
  -2.020  0.1098E+00  0.1992E+01
  -2.010  0.9941E-01  0.1993E+01
  -2.000  0.8951E-01  0.1994E+01
  -1.990  0.8010E-01  0.1995E+01
  -1.980  0.7117E-01  0.1996E+01
  -1.970  0.6276E-01  0.1996E+01
  -1.960  0.5490E-01  0.1997E+01
  -1.950  0.4760E-01  0.1998E+01
  -1.940  0.4087E-01  0.1998E+01
  -1.930  0.3470E-01  0.1998E+01
  -1.920  0.2909E-01  0.1999E+01
  -1.910  0.2428E-01  0.1999E+01
  -1.900  0.2073E-01  0.1999E+01
  -1.890  0.1813E-01  0.1999E+01
  -1.880  0.1614E-01  0.2000E+01
  -1.870  0.1477E-01  0.2000E+01
  -1.860  0.1401E-01  0.2000E+01
  -1.850  0.1391E-01  0.2000E+01
  -1.840  0.1445E-01  0.2000E+01
  -1.830  0.1564E-01  0.2000E+01
  -1.820  0.1748E-01  0.2000E+01
  -1.810  0.1998E-01  0.2001E+01
  -1.800  0.2318E-01  0.2001E+01
  -1.790  0.2697E-01  0.2001E+01
  -1.780  0.3137E-01  0.2001E+01
  -1.770  0.3663E-01  0.2002E+01
  -1.760  0.4223E-01  0.2002E+01
  -1.750  0.4819E-01  0.2003E+01
  -1.740  0.5449E-01  0.2003E+01
  -1.730  0.6115E-01  0.2004E+01
  -1.720  0.6815E-01  0.2004E+01
  -1.710  0.7550E-01  0.2005E+01
  -1.700  0.8320E-01  0.2006E+01
  -1.690  0.9125E-01  0.2007E+01
  -1.680  0.9965E-01  0.2008E+01
  -1.670  0.1091E+00  0.2009E+01
  -1.660  0.1189E+00  0.2010E+01
  -1.650  0.1288E+00  0.2011E+01
  -1.640  0.1389E+00  0.2012E+01
  -1.630  0.1491E+00  0.2014E+01
  -1.620  0.1595E+00  0.2015E+01
  -1.610  0.1701E+00  0.2017E+01
  -1.600  0.1808E+00  0.2019E+01
  -1.590  0.1916E+00  0.2021E+01
  -1.580  0.2026E+00  0.2023E+01
  -1.570  0.2138E+00  0.2025E+01
  -1.560  0.2251E+00  0.2027E+01
  -1.550  0.2365E+00  0.2029E+01
  -1.540  0.2482E+00  0.2032E+01
  -1.530  0.2599E+00  0.2034E+01
  -1.520  0.2720E+00  0.2037E+01
  -1.510  0.2848E+00  0.2040E+01
  -1.500  0.2984E+00  0.2043E+01
  -1.490  0.3128E+00  0.2046E+01
  -1.480  0.3281E+00  0.2049E+01
  -1.470  0.3431E+00  0.2052E+01
  -1.460  0.3568E+00  0.2056E+01
  -1.450  0.3670E+00  0.2059E+01
  -1.440  0.3768E+00  0.2063E+01
  -1.430  0.3860E+00  0.2067E+01
  -1.420  0.3947E+00  0.2071E+01
  -1.410  0.4029E+00  0.2075E+01
  -1.400  0.4104E+00  0.2079E+01
  -1.390  0.4174E+00  0.2083E+01
  -1.380  0.4237E+00  0.2087E+01
  -1.370  0.4295E+00  0.2091E+01
  -1.360  0.4349E+00  0.2096E+01
  -1.350  0.4406E+00  0.2100E+01
  -1.340  0.4454E+00  0.2105E+01
  -1.330  0.4502E+00  0.2109E+01
  -1.320  0.4551E+00  0.2114E+01
  -1.310  0.4600E+00  0.2118E+01
  -1.300  0.4649E+00  0.2123E+01
  -1.290  0.4699E+00  0.2127E+01
  -1.280  0.4749E+00  0.2132E+01
  -1.270  0.4799E+00  0.2137E+01
  -1.260  0.4850E+00  0.2142E+01
  -1.250  0.4901E+00  0.2147E+01
  -1.240  0.4952E+00  0.2152E+01
  -1.230  0.5004E+00  0.2157E+01
  -1.220  0.5108E+00  0.2162E+01
  -1.210  0.5219E+00  0.2167E+01
  -1.200  0.5287E+00  0.2172E+01
  -1.190  0.5354E+00  0.2177E+01
  -1.180  0.5421E+00  0.2183E+01
  -1.170  0.5487E+00  0.2188E+01
  -1.160  0.5528E+00  0.2194E+01
  -1.150  0.5570E+00  0.2199E+01
  -1.140  0.5622E+00  0.2205E+01
  -1.130  0.5686E+00  0.2210E+01
  -1.120  0.5759E+00  0.2216E+01
  -1.110  0.5840E+00  0.2222E+01
  -1.100  0.5927E+00  0.2228E+01
  -1.090  0.6020E+00  0.2234E+01
  -1.080  0.6115E+00  0.2240E+01
  -1.070  0.6212E+00  0.2246E+01
  -1.060  0.6311E+00  0.2252E+01
  -1.050  0.6416E+00  0.2259E+01
  -1.040  0.6522E+00  0.2265E+01
  -1.030  0.6630E+00  0.2272E+01
  -1.020  0.6743E+00  0.2278E+01
  -1.010  0.6865E+00  0.2285E+01
  -1.000  0.7058E+00  0.2292E+01
  -0.990  0.7341E+00  0.2299E+01
  -0.980  0.7714E+00  0.2307E+01
  -0.970  0.8789E+00  0.2315E+01
  -0.960  0.8824E+00  0.2324E+01
  -0.950  0.9484E+00  0.2333E+01
  -0.940  0.1028E+01  0.2343E+01
  -0.930  0.1119E+01  0.2353E+01
  -0.920  0.1222E+01  0.2365E+01
  -0.910  0.1304E+01  0.2378E+01
  -0.900  0.1419E+01  0.2391E+01
  -0.890  0.1602E+01  0.2406E+01
  -0.880  0.1708E+01  0.2423E+01
  -0.870  0.1759E+01  0.2440E+01
  -0.860  0.1752E+01  0.2458E+01
  -0.850  0.1766E+01  0.2475E+01
  -0.840  0.1769E+01  0.2493E+01
  -0.830  0.1750E+01  0.2511E+01
  -0.820  0.1710E+01  0.2528E+01
  -0.810  0.1653E+01  0.2545E+01
  -0.800  0.1593E+01  0.2561E+01
  -0.790  0.1529E+01  0.2577E+01
  -0.780  0.1461E+01  0.2592E+01
  -0.770  0.1383E+01  0.2606E+01
  -0.760  0.1320E+01  0.2619E+01
  -0.750  0.1267E+01  0.2632E+01
  -0.740  0.1221E+01  0.2645E+01
  -0.730  0.1181E+01  0.2657E+01
  -0.720  0.1147E+01  0.2668E+01
  -0.710  0.1115E+01  0.2680E+01
  -0.700  0.1086E+01  0.2691E+01
  -0.690  0.1060E+01  0.2701E+01
  -0.680  0.1037E+01  0.2712E+01
  -0.670  0.1015E+01  0.2722E+01
  -0.660  0.9954E+00  0.2732E+01
  -0.650  0.9767E+00  0.2742E+01
  -0.640  0.9590E+00  0.2752E+01
  -0.630  0.9421E+00  0.2761E+01
  -0.620  0.9262E+00  0.2771E+01
  -0.610  0.9111E+00  0.2780E+01
  -0.600  0.8966E+00  0.2789E+01
  -0.590  0.8826E+00  0.2798E+01
  -0.580  0.8691E+00  0.2807E+01
  -0.570  0.8563E+00  0.2815E+01
  -0.560  0.8443E+00  0.2824E+01
  -0.550  0.8322E+00  0.2832E+01
  -0.540  0.8205E+00  0.2840E+01
  -0.530  0.8099E+00  0.2848E+01
  -0.520  0.8000E+00  0.2857E+01
  -0.510  0.7905E+00  0.2864E+01
  -0.500  0.7814E+00  0.2872E+01
  -0.490  0.7726E+00  0.2880E+01
  -0.480  0.7641E+00  0.2888E+01
  -0.470  0.7557E+00  0.2895E+01
  -0.460  0.7475E+00  0.2903E+01
  -0.450  0.7395E+00  0.2910E+01
  -0.440  0.7316E+00  0.2918E+01
  -0.430  0.7240E+00  0.2925E+01
  -0.420  0.7165E+00  0.2932E+01
  -0.410  0.7092E+00  0.2939E+01
  -0.400  0.7021E+00  0.2946E+01
  -0.390  0.6951E+00  0.2953E+01
  -0.380  0.6884E+00  0.2960E+01
  -0.370  0.6818E+00  0.2967E+01
  -0.360  0.6754E+00  0.2974E+01
  -0.350  0.6692E+00  0.2981E+01
  -0.340  0.6629E+00  0.2987E+01
  -0.330  0.6567E+00  0.2994E+01
  -0.320  0.6507E+00  0.3000E+01
  -0.310  0.6451E+00  0.3007E+01
  -0.300  0.6396E+00  0.3013E+01
  -0.290  0.6342E+00  0.3020E+01
  -0.280  0.6289E+00  0.3026E+01
  -0.270  0.6237E+00  0.3032E+01
  -0.260  0.6186E+00  0.3038E+01
  -0.250  0.6137E+00  0.3045E+01
  -0.240  0.6088E+00  0.3051E+01
  -0.230  0.6039E+00  0.3057E+01
  -0.220  0.5991E+00  0.3063E+01
  -0.210  0.5944E+00  0.3069E+01
  -0.200  0.5898E+00  0.3075E+01
  -0.190  0.5851E+00  0.3081E+01
  -0.180  0.5817E+00  0.3086E+01
  -0.170  0.5774E+00  0.3092E+01
  -0.160  0.5730E+00  0.3098E+01
  -0.150  0.5686E+00  0.3104E+01
  -0.140  0.5642E+00  0.3109E+01
  -0.130  0.5597E+00  0.3115E+01
  -0.120  0.5552E+00  0.3121E+01
  -0.110  0.5509E+00  0.3126E+01
  -0.100  0.5467E+00  0.3132E+01
  -0.090  0.5425E+00  0.3137E+01
  -0.080  0.5384E+00  0.3142E+01
  -0.070  0.5344E+00  0.3148E+01
  -0.060  0.5304E+00  0.3153E+01
  -0.050  0.5265E+00  0.3158E+01
  -0.040  0.5226E+00  0.3164E+01
  -0.030  0.5187E+00  0.3169E+01
  -0.020  0.5149E+00  0.3174E+01
  -0.010  0.5112E+00  0.3179E+01
   0.000  0.5075E+00  0.3184E+01
   0.010  0.5040E+00  0.3189E+01
   0.020  0.5005E+00  0.3194E+01
   0.030  0.4971E+00  0.3199E+01
   0.040  0.4939E+00  0.3204E+01
   0.050  0.4906E+00  0.3209E+01
   0.060  0.4874E+00  0.3214E+01
   0.070  0.4843E+00  0.3219E+01
   0.080  0.4812E+00  0.3224E+01
   0.090  0.4781E+00  0.3229E+01
   0.100  0.4750E+00  0.3233E+01
   0.110  0.4720E+00  0.3238E+01
   0.120  0.4690E+00  0.3243E+01
   0.130  0.4660E+00  0.3247E+01
   0.140  0.4630E+00  0.3252E+01
   0.150  0.4601E+00  0.3257E+01
   0.160  0.4572E+00  0.3261E+01
   0.170  0.4543E+00  0.3266E+01
   0.180  0.4514E+00  0.3270E+01
   0.190  0.4486E+00  0.3275E+01
   0.200  0.4458E+00  0.3279E+01
   0.210  0.4431E+00  0.3284E+01
   0.220  0.4405E+00  0.3288E+01
   0.230  0.4380E+00  0.3293E+01
   0.240  0.4354E+00  0.3297E+01
   0.250  0.4328E+00  0.3301E+01
   0.260  0.4303E+00  0.3306E+01
   0.270  0.4277E+00  0.3310E+01
   0.280  0.4252E+00  0.3314E+01
   0.290  0.4229E+00  0.3318E+01
   0.300  0.4207E+00  0.3323E+01
   0.310  0.4183E+00  0.3327E+01
   0.320  0.4158E+00  0.3331E+01
   0.330  0.4132E+00  0.3335E+01
   0.340  0.4104E+00  0.3339E+01
   0.350  0.4078E+00  0.3343E+01
   0.360  0.4051E+00  0.3347E+01
   0.370  0.4026E+00  0.3351E+01
   0.380  0.4001E+00  0.3355E+01
   0.390  0.3975E+00  0.3359E+01
   0.400  0.3951E+00  0.3363E+01
   0.410  0.3926E+00  0.3367E+01
   0.420  0.3902E+00  0.3371E+01
   0.430  0.3877E+00  0.3375E+01
   0.440  0.3853E+00  0.3379E+01
   0.450  0.3830E+00  0.3383E+01
   0.460  0.3806E+00  0.3387E+01
   0.470  0.3783E+00  0.3390E+01
   0.480  0.3760E+00  0.3394E+01
   0.490  0.3737E+00  0.3398E+01
   0.500  0.3715E+00  0.3402E+01
   0.510  0.3693E+00  0.3405E+01
   0.520  0.3671E+00  0.3409E+01
   0.530  0.3649E+00  0.3413E+01
   0.540  0.3627E+00  0.3416E+01
   0.550  0.3606E+00  0.3420E+01
   0.560  0.3585E+00  0.3424E+01
   0.570  0.3564E+00  0.3427E+01
   0.580  0.3543E+00  0.3431E+01
   0.590  0.3523E+00  0.3434E+01
   0.600  0.3502E+00  0.3438E+01
   0.610  0.3482E+00  0.3441E+01
   0.620  0.3462E+00  0.3445E+01
   0.630  0.3442E+00  0.3448E+01
   0.640  0.3423E+00  0.3452E+01
   0.650  0.3404E+00  0.3455E+01
   0.660  0.3386E+00  0.3458E+01
   0.670  0.3368E+00  0.3462E+01
   0.680  0.3350E+00  0.3465E+01
   0.690  0.3332E+00  0.3468E+01
   0.700  0.3314E+00  0.3472E+01
   0.710  0.3297E+00  0.3475E+01
   0.720  0.3279E+00  0.3478E+01
   0.730  0.3262E+00  0.3482E+01
   0.740  0.3245E+00  0.3485E+01
   0.750  0.3228E+00  0.3488E+01
   0.760  0.3211E+00  0.3491E+01
   0.770  0.3194E+00  0.3495E+01
   0.780  0.3176E+00  0.3498E+01
   0.790  0.3165E+00  0.3501E+01
   0.800  0.3154E+00  0.3504E+01
   0.810  0.3140E+00  0.3507E+01
   0.820  0.3124E+00  0.3510E+01
   0.830  0.3107E+00  0.3514E+01
   0.840  0.3090E+00  0.3517E+01
   0.850  0.3072E+00  0.3520E+01
   0.860  0.3054E+00  0.3523E+01
   0.870  0.3035E+00  0.3526E+01
   0.880  0.3016E+00  0.3529E+01
   0.890  0.2998E+00  0.3532E+01
   0.900  0.2979E+00  0.3535E+01
   0.910  0.2961E+00  0.3538E+01
   0.920  0.2942E+00  0.3541E+01
   0.930  0.2924E+00  0.3544E+01
   0.940  0.2907E+00  0.3547E+01
   0.950  0.2889E+00  0.3549E+01
   0.960  0.2871E+00  0.3552E+01
   0.970  0.2854E+00  0.3555E+01
   0.980  0.2837E+00  0.3558E+01
   0.990  0.2820E+00  0.3561E+01
   1.000  0.2803E+00  0.3564E+01
   1.010  0.2785E+00  0.3567E+01
   1.020  0.2767E+00  0.3569E+01
   1.030  0.2751E+00  0.3572E+01
   1.040  0.2736E+00  0.3575E+01
   1.050  0.2721E+00  0.3578E+01
   1.060  0.2707E+00  0.3580E+01
   1.070  0.2692E+00  0.3583E+01
   1.080  0.2678E+00  0.3586E+01
   1.090  0.2664E+00  0.3588E+01
   1.100  0.2650E+00  0.3591E+01
   1.110  0.2636E+00  0.3594E+01
   1.120  0.2622E+00  0.3596E+01
   1.130  0.2608E+00  0.3599E+01
   1.140  0.2594E+00  0.3601E+01
   1.150  0.2580E+00  0.3604E+01
   1.160  0.2567E+00  0.3607E+01
   1.170  0.2553E+00  0.3609E+01
   1.180  0.2539E+00  0.3612E+01
   1.190  0.2526E+00  0.3614E+01
   1.200  0.2512E+00  0.3617E+01
   1.210  0.2499E+00  0.3619E+01
   1.220  0.2485E+00  0.3622E+01
   1.230  0.2472E+00  0.3624E+01
   1.240  0.2458E+00  0.3627E+01
   1.250  0.2445E+00  0.3629E+01
   1.260  0.2432E+00  0.3632E+01
   1.270  0.2419E+00  0.3634E+01
   1.280  0.2407E+00  0.3636E+01
   1.290  0.2395E+00  0.3639E+01
   1.300  0.2385E+00  0.3641E+01
   1.310  0.2373E+00  0.3644E+01
   1.320  0.2362E+00  0.3646E+01
   1.330  0.2350E+00  0.3648E+01
   1.340  0.2338E+00  0.3651E+01
   1.350  0.2326E+00  0.3653E+01
   1.360  0.2314E+00  0.3655E+01
   1.370  0.2305E+00  0.3658E+01
   1.380  0.2295E+00  0.3660E+01
   1.390  0.2285E+00  0.3662E+01
   1.400  0.2274E+00  0.3664E+01
   1.410  0.2262E+00  0.3667E+01
   1.420  0.2250E+00  0.3669E+01
   1.430  0.2238E+00  0.3671E+01
   1.440  0.2224E+00  0.3673E+01
   1.450  0.2211E+00  0.3676E+01
   1.460  0.2198E+00  0.3678E+01
   1.470  0.2184E+00  0.3680E+01
   1.480  0.2171E+00  0.3682E+01
   1.490  0.2158E+00  0.3684E+01
   1.500  0.2145E+00  0.3687E+01
   1.510  0.2132E+00  0.3689E+01
   1.520  0.2119E+00  0.3691E+01
   1.530  0.2107E+00  0.3693E+01
   1.540  0.2094E+00  0.3695E+01
   1.550  0.2082E+00  0.3697E+01
   1.560  0.2105E+00  0.3699E+01
   1.570  0.2186E+00  0.3701E+01
   1.580  0.2324E+00  0.3704E+01
   1.590  0.2519E+00  0.3706E+01
   1.600  0.2771E+00  0.3709E+01
   1.610  0.3363E+00  0.3712E+01
   1.620  0.4284E+00  0.3716E+01
   1.630  0.4811E+00  0.3720E+01
   1.640  0.5124E+00  0.3725E+01
   1.650  0.5530E+00  0.3730E+01
   1.660  0.5911E+00  0.3736E+01
   1.670  0.6267E+00  0.3742E+01
   1.680  0.6535E+00  0.3749E+01
   1.690  0.6800E+00  0.3755E+01
   1.700  0.7089E+00  0.3762E+01
   1.710  0.7390E+00  0.3769E+01
   1.720  0.7719E+00  0.3777E+01
   1.730  0.8027E+00  0.3785E+01
   1.740  0.8364E+00  0.3793E+01
   1.750  0.8736E+00  0.3802E+01
   1.760  0.9142E+00  0.3811E+01
   1.770  0.1001E+01  0.3820E+01
   1.780  0.1105E+01  0.3831E+01
   1.790  0.1163E+01  0.3842E+01
   1.800  0.1201E+01  0.3854E+01
   1.810  0.1227E+01  0.3866E+01
   1.820  0.1253E+01  0.3878E+01
   1.830  0.1276E+01  0.3891E+01
   1.840  0.1297E+01  0.3904E+01
   1.850  0.1319E+01  0.3917E+01
   1.860  0.1340E+01  0.3930E+01
   1.870  0.1359E+01  0.3944E+01
   1.880  0.1376E+01  0.3957E+01
   1.890  0.1363E+01  0.3971E+01
   1.900  0.1356E+01  0.3985E+01
   1.910  0.1352E+01  0.3998E+01
   1.920  0.1349E+01  0.4012E+01
   1.930  0.1349E+01  0.4025E+01
   1.940  0.1353E+01  0.4039E+01
   1.950  0.1335E+01  0.4052E+01
   1.960  0.1266E+01  0.4065E+01
   1.970  0.1209E+01  0.4078E+01
   1.980  0.1196E+01  0.4090E+01
   1.990  0.1189E+01  0.4102E+01
   2.000  0.1182E+01  0.4113E+01
   2.010  0.1176E+01  0.4125E+01
   2.020  0.1171E+01  0.4137E+01
   2.030  0.1165E+01  0.4149E+01
   2.040  0.1160E+01  0.4160E+01
   2.050  0.1155E+01  0.4172E+01
   2.060  0.1150E+01  0.4183E+01
   2.070  0.1146E+01  0.4195E+01
   2.080  0.1141E+01  0.4206E+01
   2.090  0.1138E+01  0.4218E+01
   2.100  0.1134E+01  0.4229E+01
   2.110  0.1131E+01  0.4240E+01
   2.120  0.1125E+01  0.4252E+01
   2.130  0.1122E+01  0.4263E+01
   2.140  0.1120E+01  0.4274E+01
   2.150  0.1118E+01  0.4285E+01
   2.160  0.1116E+01  0.4296E+01
   2.170  0.1115E+01  0.4308E+01
   2.180  0.1124E+01  0.4319E+01
   2.190  0.1116E+01  0.4330E+01
   2.200  0.1098E+01  0.4341E+01
   2.210  0.1086E+01  0.4352E+01
   2.220  0.1075E+01  0.4363E+01
   2.230  0.1066E+01  0.4373E+01
   2.240  0.1057E+01  0.4384E+01
   2.250  0.1049E+01  0.4395E+01
   2.260  0.1041E+01  0.4405E+01
   2.270  0.1036E+01  0.4415E+01
   2.280  0.1032E+01  0.4426E+01
   2.290  0.1031E+01  0.4436E+01
   2.300  0.1031E+01  0.4446E+01
   2.310  0.1033E+01  0.4457E+01
   2.320  0.1035E+01  0.4467E+01
   2.330  0.1035E+01  0.4477E+01
   2.340  0.1037E+01  0.4488E+01
   2.350  0.1040E+01  0.4498E+01
   2.360  0.1044E+01  0.4509E+01
   2.370  0.1048E+01  0.4519E+01
   2.380  0.1053E+01  0.4530E+01
   2.390  0.1057E+01  0.4540E+01
   2.400  0.1061E+01  0.4551E+01
   2.410  0.1066E+01  0.4561E+01
   2.420  0.1070E+01  0.4572E+01
   2.430  0.1075E+01  0.4583E+01
   2.440  0.1080E+01  0.4594E+01
   2.450  0.1084E+01  0.4604E+01
   2.460  0.1088E+01  0.4615E+01
   2.470  0.1091E+01  0.4626E+01
   2.480  0.1094E+01  0.4637E+01
   2.490  0.1097E+01  0.4648E+01
   2.500  0.1100E+01  0.4659E+01
   2.510  0.1105E+01  0.4670E+01
   2.520  0.1114E+01  0.4681E+01
   2.530  0.1142E+01  0.4692E+01
   2.540  0.1140E+01  0.4704E+01
   2.550  0.1129E+01  0.4715E+01
   2.560  0.1125E+01  0.4726E+01
   2.570  0.1124E+01  0.4738E+01
   2.580  0.1126E+01  0.4749E+01
   2.590  0.1129E+01  0.4760E+01
   2.600  0.1132E+01  0.4771E+01
   2.610  0.1134E+01  0.4783E+01
   2.620  0.1137E+01  0.4794E+01
   2.630  0.1142E+01  0.4806E+01
   2.640  0.1149E+01  0.4817E+01
   2.650  0.1154E+01  0.4828E+01
   2.660  0.1158E+01  0.4840E+01
   2.670  0.1163E+01  0.4852E+01
   2.680  0.1169E+01  0.4863E+01
   2.690  0.1175E+01  0.4875E+01
   2.700  0.1181E+01  0.4887E+01
   2.710  0.1185E+01  0.4899E+01
   2.720  0.1189E+01  0.4911E+01
   2.730  0.1193E+01  0.4922E+01
   2.740  0.1198E+01  0.4934E+01
   2.750  0.1204E+01  0.4946E+01
   2.760  0.1211E+01  0.4958E+01
   2.770  0.1218E+01  0.4971E+01
   2.780  0.1224E+01  0.4983E+01
   2.790  0.1231E+01  0.4995E+01
   2.800  0.1238E+01  0.5007E+01
   2.810  0.1245E+01  0.5020E+01
   2.820  0.1250E+01  0.5032E+01
   2.830  0.1255E+01  0.5045E+01
   2.840  0.1260E+01  0.5057E+01
   2.850  0.1265E+01  0.5070E+01
   2.860  0.1271E+01  0.5083E+01
   2.870  0.1277E+01  0.5095E+01
   2.880  0.1332E+01  0.5109E+01
   2.890  0.1340E+01  0.5122E+01
   2.900  0.1343E+01  0.5136E+01
   2.910  0.1355E+01  0.5149E+01
   2.920  0.1364E+01  0.5163E+01
   2.930  0.1376E+01  0.5177E+01
   2.940  0.1391E+01  0.5190E+01
   2.950  0.1408E+01  0.5204E+01
   2.960  0.1439E+01  0.5219E+01
   2.970  0.1473E+01  0.5233E+01
   2.980  0.1504E+01  0.5248E+01
   2.990  0.1537E+01  0.5263E+01
   3.000  0.1565E+01  0.5279E+01
   3.010  0.1586E+01  0.5295E+01
   3.020  0.1602E+01  0.5310E+01
   3.030  0.1615E+01  0.5327E+01
   3.040  0.1625E+01  0.5343E+01
   3.050  0.1631E+01  0.5359E+01
   3.060  0.1608E+01  0.5375E+01
   3.070  0.1603E+01  0.5391E+01
   3.080  0.1607E+01  0.5407E+01
   3.090  0.1611E+01  0.5423E+01
   3.100  0.1618E+01  0.5440E+01
   3.110  0.1622E+01  0.5456E+01
   3.120  0.1621E+01  0.5472E+01
   3.130  0.1619E+01  0.5488E+01
   3.140  0.1616E+01  0.5504E+01
   3.150  0.1573E+01  0.5521E+01
   3.160  0.1569E+01  0.5537E+01
   3.170  0.1566E+01  0.5552E+01
   3.180  0.1564E+01  0.5568E+01
   3.190  0.1572E+01  0.5584E+01
   3.200  0.1574E+01  0.5599E+01
   3.210  0.1566E+01  0.5615E+01
   3.220  0.1557E+01  0.5631E+01
   3.230  0.1549E+01  0.5646E+01
   3.240  0.1542E+01  0.5662E+01
   3.250  0.1538E+01  0.5677E+01
   3.260  0.1536E+01  0.5692E+01
   3.270  0.1535E+01  0.5708E+01
   3.280  0.1551E+01  0.5723E+01
   3.290  0.1569E+01  0.5739E+01
   3.300  0.1565E+01  0.5755E+01
   3.310  0.1537E+01  0.5770E+01
   3.320  0.1530E+01  0.5785E+01
   3.330  0.1525E+01  0.5801E+01
   3.340  0.1521E+01  0.5816E+01
   3.350  0.1516E+01  0.5831E+01
   3.360  0.1513E+01  0.5846E+01
   3.370  0.1509E+01  0.5861E+01
   3.380  0.1506E+01  0.5876E+01
   3.390  0.1503E+01  0.5891E+01
   3.400  0.1500E+01  0.5906E+01
   3.410  0.1497E+01  0.5921E+01
   3.420  0.1494E+01  0.5936E+01
   3.430  0.1490E+01  0.5951E+01
   3.440  0.1486E+01  0.5966E+01
   3.450  0.1484E+01  0.5981E+01
   3.460  0.1481E+01  0.5996E+01
   3.470  0.1479E+01  0.6011E+01
   3.480  0.1478E+01  0.6025E+01
   3.490  0.1477E+01  0.6040E+01
   3.500  0.1475E+01  0.6055E+01
   3.510  0.1474E+01  0.6070E+01
   3.520  0.1474E+01  0.6084E+01
   3.530  0.1499E+01  0.6099E+01
   3.540  0.1487E+01  0.6114E+01
   3.550  0.1477E+01  0.6129E+01
   3.560  0.1473E+01  0.6144E+01
   3.570  0.1468E+01  0.6159E+01
   3.580  0.1458E+01  0.6173E+01
   3.590  0.1448E+01  0.6188E+01
   3.600  0.1444E+01  0.6202E+01
   3.610  0.1440E+01  0.6217E+01
   3.620  0.1436E+01  0.6231E+01
   3.630  0.1433E+01  0.6245E+01
   3.640  0.1430E+01  0.6260E+01
   3.650  0.1426E+01  0.6274E+01
   3.660  0.1423E+01  0.6288E+01
   3.670  0.1420E+01  0.6302E+01
   3.680  0.1416E+01  0.6317E+01
   3.690  0.1412E+01  0.6331E+01
   3.700  0.1408E+01  0.6345E+01
   3.710  0.1404E+01  0.6359E+01
   3.720  0.1400E+01  0.6373E+01
   3.730  0.1397E+01  0.6387E+01
   3.740  0.1393E+01  0.6401E+01
   3.750  0.1391E+01  0.6415E+01
   3.760  0.1389E+01  0.6429E+01
   3.770  0.1387E+01  0.6442E+01
   3.780  0.1386E+01  0.6456E+01
   3.790  0.1386E+01  0.6470E+01
   3.800  0.1385E+01  0.6484E+01
   3.810  0.1386E+01  0.6498E+01
   3.820  0.1388E+01  0.6512E+01
   3.830  0.1391E+01  0.6526E+01
   3.840  0.1388E+01  0.6540E+01
   3.850  0.1382E+01  0.6553E+01
   3.860  0.1386E+01  0.6567E+01
   3.870  0.1383E+01  0.6581E+01
   3.880  0.1379E+01  0.6595E+01
   3.890  0.1377E+01  0.6609E+01
   3.900  0.1374E+01  0.6622E+01
   3.910  0.1375E+01  0.6636E+01
   3.920  0.1375E+01  0.6650E+01
   3.930  0.1373E+01  0.6664E+01
   3.940  0.1370E+01  0.6677E+01
   3.950  0.1366E+01  0.6691E+01
   3.960  0.1363E+01  0.6705E+01
   3.970  0.1360E+01  0.6718E+01
   3.980  0.1356E+01  0.6732E+01
   3.990  0.1351E+01  0.6745E+01
   4.000  0.1346E+01  0.6759E+01
   4.010  0.1340E+01  0.6772E+01
   4.020  0.1335E+01  0.6786E+01
   4.030  0.1330E+01  0.6799E+01
   4.040  0.1325E+01  0.6812E+01
   4.050  0.1320E+01  0.6826E+01
   4.060  0.1316E+01  0.6839E+01
   4.070  0.1312E+01  0.6852E+01
   4.080  0.1308E+01  0.6865E+01
   4.090  0.1305E+01  0.6878E+01
   4.100  0.1302E+01  0.6891E+01
   4.110  0.1300E+01  0.6904E+01
   4.120  0.1297E+01  0.6917E+01
   4.130  0.1295E+01  0.6930E+01
   4.140  0.1293E+01  0.6943E+01
   4.150  0.1292E+01  0.6956E+01
   4.160  0.1327E+01  0.6969E+01
   4.170  0.1294E+01  0.6982E+01
   4.180  0.1293E+01  0.6995E+01
   4.190  0.1292E+01  0.7008E+01
   4.200  0.1291E+01  0.7021E+01
   4.210  0.1291E+01  0.7034E+01
   4.220  0.1290E+01  0.7047E+01
   4.230  0.1290E+01  0.7059E+01
   4.240  0.1288E+01  0.7072E+01
   4.250  0.1286E+01  0.7085E+01
   4.260  0.1281E+01  0.7098E+01
   4.270  0.1297E+01  0.7111E+01
   4.280  0.1319E+01  0.7124E+01
   4.290  0.1321E+01  0.7137E+01
   4.300  0.1311E+01  0.7150E+01
   4.310  0.1289E+01  0.7163E+01
   4.320  0.1279E+01  0.7176E+01
   4.330  0.1272E+01  0.7189E+01
   4.340  0.1267E+01  0.7202E+01
   4.350  0.1262E+01  0.7214E+01
   4.360  0.1257E+01  0.7227E+01
   4.370  0.1250E+01  0.7239E+01
   4.380  0.1245E+01  0.7252E+01
   4.390  0.1240E+01  0.7264E+01
   4.400  0.1246E+01  0.7277E+01
   4.410  0.1285E+01  0.7289E+01
   4.420  0.1263E+01  0.7302E+01
   4.430  0.1256E+01  0.7315E+01
   4.440  0.1252E+01  0.7327E+01
   4.450  0.1249E+01  0.7340E+01
   4.460  0.1244E+01  0.7352E+01
   4.470  0.1238E+01  0.7364E+01
   4.480  0.1232E+01  0.7377E+01
   4.490  0.1225E+01  0.7389E+01
   4.500  0.1218E+01  0.7401E+01
   4.510  0.1218E+01  0.7413E+01
   4.520  0.1227E+01  0.7426E+01
   4.530  0.1225E+01  0.7438E+01
   4.540  0.1218E+01  0.7450E+01
   4.550  0.1207E+01  0.7462E+01
   4.560  0.1182E+01  0.7474E+01
   4.570  0.1151E+01  0.7486E+01
   4.580  0.1115E+01  0.7497E+01
   4.590  0.1074E+01  0.7508E+01
   4.600  0.1028E+01  0.7519E+01
   4.610  0.9886E+00  0.7529E+01
   4.620  0.9596E+00  0.7539E+01
   4.630  0.9377E+00  0.7548E+01
   4.640  0.9168E+00  0.7557E+01
   4.650  0.8969E+00  0.7566E+01
   4.660  0.8779E+00  0.7575E+01
   4.670  0.8600E+00  0.7584E+01
   4.680  0.8430E+00  0.7592E+01
   4.690  0.8182E+00  0.7601E+01
   4.700  0.8055E+00  0.7609E+01
   4.710  0.8113E+00  0.7617E+01
   4.720  0.7949E+00  0.7625E+01
   4.730  0.7796E+00  0.7633E+01
   4.740  0.7646E+00  0.7641E+01
   4.750  0.7499E+00  0.7648E+01
   4.760  0.7363E+00  0.7656E+01
   4.770  0.7225E+00  0.7663E+01
   4.780  0.7088E+00  0.7670E+01
   4.790  0.6955E+00  0.7677E+01
   4.800  0.6830E+00  0.7684E+01
   4.810  0.6711E+00  0.7691E+01
   4.820  0.6591E+00  0.7697E+01
   4.830  0.6471E+00  0.7704E+01
   4.840  0.6371E+00  0.7710E+01
   4.850  0.6294E+00  0.7717E+01
   4.860  0.6216E+00  0.7723E+01
   4.870  0.6138E+00  0.7729E+01
   4.880  0.6092E+00  0.7735E+01
   4.890  0.6050E+00  0.7741E+01
   4.900  0.6033E+00  0.7747E+01
   4.910  0.6127E+00  0.7753E+01
   4.920  0.5974E+00  0.7760E+01
   4.930  0.5837E+00  0.7765E+01
   4.940  0.5705E+00  0.7771E+01
   4.950  0.5576E+00  0.7777E+01
   4.960  0.5446E+00  0.7782E+01
   4.970  0.5320E+00  0.7788E+01
   4.980  0.5197E+00  0.7793E+01
   4.990  0.5076E+00  0.7798E+01
   5.000  0.4961E+00  0.7803E+01
   5.010  0.4852E+00  0.7808E+01
   5.020  0.4770E+00  0.7813E+01
   5.030  0.4711E+00  0.7818E+01
   5.040  0.4653E+00  0.7822E+01
   5.050  0.4600E+00  0.7827E+01
   5.060  0.4551E+00  0.7831E+01
   5.070  0.4498E+00  0.7836E+01
   5.080  0.4442E+00  0.7840E+01
   5.090  0.4383E+00  0.7845E+01
   5.100  0.4320E+00  0.7849E+01
   5.110  0.4284E+00  0.7854E+01
   5.120  0.4627E+00  0.7858E+01
   5.130  0.4366E+00  0.7862E+01
   5.140  0.4247E+00  0.7867E+01
   5.150  0.4130E+00  0.7871E+01
   5.160  0.4017E+00  0.7875E+01
   5.170  0.3906E+00  0.7879E+01
   5.180  0.3797E+00  0.7883E+01
   5.190  0.3691E+00  0.7887E+01
   5.200  0.3587E+00  0.7890E+01
   5.210  0.3488E+00  0.7894E+01
   5.220  0.3423E+00  0.7897E+01
   5.230  0.3372E+00  0.7901E+01
   5.240  0.3322E+00  0.7904E+01
   5.250  0.3273E+00  0.7907E+01
   5.260  0.3224E+00  0.7911E+01
   5.270  0.3176E+00  0.7914E+01
   5.280  0.3129E+00  0.7917E+01
   5.290  0.3082E+00  0.7920E+01
   5.300  0.3037E+00  0.7923E+01
   5.310  0.3086E+00  0.7926E+01
   5.320  0.3203E+00  0.7929E+01
   5.330  0.3367E+00  0.7933E+01
   5.340  0.3184E+00  0.7936E+01
   5.350  0.3110E+00  0.7939E+01
   5.360  0.3022E+00  0.7942E+01
   5.370  0.2906E+00  0.7945E+01
   5.380  0.2768E+00  0.7948E+01
   5.390  0.2615E+00  0.7951E+01
   5.400  0.2469E+00  0.7953E+01
   5.410  0.2363E+00  0.7956E+01
   5.420  0.2263E+00  0.7958E+01
   5.430  0.2211E+00  0.7960E+01
   5.440  0.2188E+00  0.7963E+01
   5.450  0.2167E+00  0.7965E+01
   5.460  0.2150E+00  0.7967E+01
   5.470  0.2136E+00  0.7969E+01
   5.480  0.2125E+00  0.7971E+01
   5.490  0.2092E+00  0.7973E+01
   5.500  0.2034E+00  0.7975E+01
   5.510  0.1966E+00  0.7977E+01
   5.520  0.1889E+00  0.7979E+01
   5.530  0.1802E+00  0.7981E+01
   5.540  0.1707E+00  0.7983E+01
   5.550  0.1612E+00  0.7985E+01
   5.560  0.1517E+00  0.7986E+01
   5.570  0.1415E+00  0.7988E+01
   5.580  0.1313E+00  0.7989E+01
   5.590  0.1212E+00  0.7990E+01
   5.600  0.1111E+00  0.7991E+01
   5.610  0.1031E+00  0.7992E+01
   5.620  0.9612E-01  0.7993E+01
   5.630  0.8910E-01  0.7994E+01
   5.640  0.8202E-01  0.7995E+01
   5.650  0.7487E-01  0.7996E+01
   5.660  0.6765E-01  0.7997E+01
   5.670  0.6038E-01  0.7997E+01
   5.680  0.5304E-01  0.7998E+01
   5.690  0.4563E-01  0.7998E+01
   5.700  0.6170E-01  0.7999E+01
   5.710  0.3728E-01  0.8000E+01
   5.720  0.1843E-01  0.8000E+01
   5.730  0.1048E-01  0.8000E+01
   5.740  0.4766E-02  0.8000E+01
   5.750  0.1273E-02  0.8000E+01
   5.760  0.5403E-05  0.8000E+01
   5.770  0.0000E+00  0.8000E+01
   5.780  0.0000E+00  0.8000E+01
   5.790  0.0000E+00  0.8000E+01
   5.800  0.0000E+00  0.8000E+01
   5.810  0.0000E+00  0.8000E+01
   5.820  0.0000E+00  0.8000E+01
   5.830  0.0000E+00  0.8000E+01
   5.840  0.0000E+00  0.8000E+01
   5.850  0.0000E+00  0.8000E+01
   5.860  0.0000E+00  0.8000E+01
   5.870  0.0000E+00  0.8000E+01
   5.880  0.0000E+00  0.8000E+01
   5.890  0.0000E+00  0.8000E+01
   5.900  0.0000E+00  0.8000E+01
   5.910  0.0000E+00  0.8000E+01
   5.920  0.0000E+00  0.8000E+01
   5.930  0.0000E+00  0.8000E+01
   5.940  0.0000E+00  0.8000E+01
   5.950  0.0000E+00  0.8000E+01
   5.960  0.0000E+00  0.8000E+01
   5.970  0.0000E+00  0.8000E+01
   5.980  0.0000E+00  0.8000E+01
   5.990  0.0000E+00  0.8000E+01
   6.000  0.0000E+00  0.8000E+01
   6.010  0.0000E+00  0.8000E+01
   6.020  0.0000E+00  0.8000E+01
   6.030  0.0000E+00  0.8000E+01
   6.040  0.0000E+00  0.8000E+01
   6.050  0.0000E+00  0.8000E+01
   6.060  0.0000E+00  0.8000E+01
   6.070  0.0000E+00  0.8000E+01
   6.080  0.0000E+00  0.8000E+01
   6.090  0.0000E+00  0.8000E+01
   6.100  0.0000E+00  0.8000E+01
   6.110  0.0000E+00  0.8000E+01
   6.120  0.0000E+00  0.8000E+01
   6.130  0.0000E+00  0.8000E+01
   6.140  0.0000E+00  0.8000E+01
   6.150  0.0000E+00  0.8000E+01
   6.160  0.0000E+00  0.8000E+01
   6.170  0.0000E+00  0.8000E+01
   6.180  0.0000E+00  0.8000E+01
   6.190  0.0000E+00  0.8000E+01
   6.200  0.0000E+00  0.8000E+01
   6.210  0.0000E+00  0.8000E+01
   6.220  0.0000E+00  0.8000E+01
   6.230  0.0000E+00  0.8000E+01
   6.240  0.0000E+00  0.8000E+01
   6.250  0.0000E+00  0.8000E+01
   6.260  0.0000E+00  0.8000E+01
   6.270  0.0000E+00  0.8000E+01
   6.280  0.0000E+00  0.8000E+01
   6.290  0.0000E+00  0.8000E+01
   6.300  0.0000E+00  0.8000E+01
   6.310  0.0000E+00  0.8000E+01
   6.320  0.0000E+00  0.8000E+01
   6.330  0.0000E+00  0.8000E+01
   6.340  0.0000E+00  0.8000E+01
   6.350  0.0000E+00  0.8000E+01
   6.360  0.0000E+00  0.8000E+01
   6.370  0.0000E+00  0.8000E+01
   6.380  0.0000E+00  0.8000E+01
   6.390  0.0000E+00  0.8000E+01
   6.400  0.0000E+00  0.8000E+01
   6.410  0.0000E+00  0.8000E+01
   6.420  0.0000E+00  0.8000E+01
   6.430  0.8838E-03  0.8000E+01
   6.440  0.3518E-02  0.8000E+01
   6.450  0.7233E-02  0.8000E+01
   6.460  0.1203E-01  0.8000E+01
   6.470  0.1791E-01  0.8000E+01
   6.480  0.2487E-01  0.8001E+01
   6.490  0.3290E-01  0.8001E+01
   6.500  0.4202E-01  0.8001E+01
   6.510  0.5223E-01  0.8002E+01
   6.520  0.6351E-01  0.8002E+01
   6.530  0.7587E-01  0.8003E+01
   6.540  0.8810E-01  0.8004E+01
   6.550  0.9908E-01  0.8005E+01
   6.560  0.1327E+00  0.8006E+01
   6.570  0.1500E+00  0.8007E+01
   6.580  0.1576E+00  0.8009E+01
   6.590  0.1663E+00  0.8010E+01
   6.600  0.1758E+00  0.8012E+01
   6.610  0.1863E+00  0.8014E+01
   6.620  0.1949E+00  0.8016E+01
   6.630  0.2015E+00  0.8018E+01
   6.640  0.2082E+00  0.8020E+01
   6.650  0.2150E+00  0.8022E+01
   6.660  0.2217E+00  0.8024E+01
   6.670  0.2283E+00  0.8026E+01
   6.680  0.2347E+00  0.8029E+01
   6.690  0.2409E+00  0.8031E+01
   6.700  0.2469E+00  0.8034E+01
   6.710  0.2525E+00  0.8036E+01
   6.720  0.2584E+00  0.8039E+01
   6.730  0.2655E+00  0.8041E+01
   6.740  0.2733E+00  0.8044E+01
   6.750  0.2812E+00  0.8047E+01
   6.760  0.2894E+00  0.8050E+01
   6.770  0.2977E+00  0.8052E+01
   6.780  0.3062E+00  0.8055E+01
   6.790  0.3197E+00  0.8059E+01
   6.800  0.3458E+00  0.8062E+01
   6.810  0.3521E+00  0.8065E+01
   6.820  0.3570E+00  0.8069E+01
   6.830  0.3834E+00  0.8073E+01
   6.840  0.4384E+00  0.8077E+01
   6.850  0.4262E+00  0.8081E+01
   6.860  0.3828E+00  0.8085E+01
   6.870  0.3889E+00  0.8089E+01
   6.880  0.3948E+00  0.8093E+01
   6.890  0.4006E+00  0.8097E+01
   6.900  0.4062E+00  0.8101E+01
   6.910  0.4114E+00  0.8105E+01
   6.920  0.4166E+00  0.8109E+01
   6.930  0.4218E+00  0.8113E+01
   6.940  0.4270E+00  0.8118E+01
   6.950  0.4322E+00  0.8122E+01
   6.960  0.4369E+00  0.8126E+01
   6.970  0.4415E+00  0.8131E+01
   6.980  0.4462E+00  0.8135E+01
   6.990  0.4510E+00  0.8140E+01
   7.000  0.4559E+00  0.8144E+01
   7.010  0.4610E+00  0.8149E+01
   7.020  0.4664E+00  0.8153E+01
   7.030  0.4722E+00  0.8158E+01
   7.040  0.4781E+00  0.8163E+01
   7.050  0.4841E+00  0.8168E+01
   7.060  0.4903E+00  0.8172E+01
   7.070  0.4967E+00  0.8177E+01
   7.080  0.5034E+00  0.8182E+01
   7.090  0.5387E+00  0.8188E+01
   7.100  0.5225E+00  0.8193E+01
   7.110  0.5290E+00  0.8199E+01
   7.120  0.5356E+00  0.8204E+01
   7.130  0.5420E+00  0.8209E+01
   7.140  0.5482E+00  0.8215E+01
   7.150  0.5542E+00  0.8220E+01
   7.160  0.5601E+00  0.8226E+01
   7.170  0.5657E+00  0.8231E+01
   7.180  0.5717E+00  0.8237E+01
   7.190  0.5780E+00  0.8243E+01
   7.200  0.5851E+00  0.8249E+01
   7.210  0.5925E+00  0.8255E+01
   7.220  0.5998E+00  0.8261E+01
   7.230  0.6072E+00  0.8267E+01
   7.240  0.6150E+00  0.8273E+01
   7.250  0.6231E+00  0.8279E+01
   7.260  0.6314E+00  0.8285E+01
   7.270  0.6401E+00  0.8291E+01
   7.280  0.6491E+00  0.8298E+01
   7.290  0.6584E+00  0.8304E+01
   7.300  0.6676E+00  0.8311E+01
   7.310  0.6774E+00  0.8318E+01
   7.320  0.6876E+00  0.8325E+01
   7.330  0.6979E+00  0.8332E+01
   7.340  0.7085E+00  0.8339E+01
   7.350  0.7192E+00  0.8346E+01
   7.360  0.7302E+00  0.8353E+01
   7.370  0.7413E+00  0.8360E+01
   7.380  0.7527E+00  0.8368E+01
   7.390  0.7644E+00  0.8375E+01
   7.400  0.7767E+00  0.8383E+01
   7.410  0.7994E+00  0.8391E+01
   7.420  0.8194E+00  0.8399E+01
   7.430  0.8792E+00  0.8407E+01
   7.440  0.8731E+00  0.8417E+01
   7.450  0.8818E+00  0.8426E+01
   7.460  0.8911E+00  0.8435E+01
   7.470  0.9028E+00  0.8443E+01
   7.480  0.9278E+00  0.8453E+01
   7.490  0.9242E+00  0.8462E+01
   7.500  0.9306E+00  0.8471E+01
   7.510  0.9379E+00  0.8481E+01
   7.520  0.9464E+00  0.8490E+01
   7.530  0.9567E+00  0.8499E+01
   7.540  0.9685E+00  0.8509E+01
   7.550  0.9809E+00  0.8519E+01
   7.560  0.9933E+00  0.8529E+01
   7.570  0.1011E+01  0.8539E+01
   7.580  0.1026E+01  0.8549E+01
   7.590  0.1032E+01  0.8559E+01
   7.600  0.1036E+01  0.8570E+01
   7.610  0.1049E+01  0.8580E+01
   7.620  0.1062E+01  0.8591E+01
   7.630  0.1074E+01  0.8601E+01
   7.640  0.1087E+01  0.8612E+01
   7.650  0.1100E+01  0.8623E+01
   7.660  0.1113E+01  0.8634E+01
   7.670  0.1125E+01  0.8645E+01
   7.680  0.1138E+01  0.8657E+01
   7.690  0.1150E+01  0.8668E+01
   7.700  0.1163E+01  0.8680E+01
   7.710  0.1180E+01  0.8691E+01
   7.720  0.1194E+01  0.8703E+01
   7.730  0.1204E+01  0.8715E+01
   7.740  0.1215E+01  0.8727E+01
   7.750  0.1234E+01  0.8739E+01
   7.760  0.1252E+01  0.8752E+01
   7.770  0.1269E+01  0.8764E+01
   7.780  0.1301E+01  0.8777E+01
   7.790  0.1339E+01  0.8791E+01
   7.800  0.1382E+01  0.8804E+01
   7.810  0.1435E+01  0.8818E+01
   7.820  0.1503E+01  0.8833E+01
   7.830  0.1565E+01  0.8848E+01
   7.840  0.1608E+01  0.8864E+01
   7.850  0.1635E+01  0.8880E+01
   7.860  0.1643E+01  0.8897E+01
   7.870  0.1648E+01  0.8913E+01
   7.880  0.1662E+01  0.8930E+01
   7.890  0.1674E+01  0.8946E+01
   7.900  0.1687E+01  0.8963E+01
   7.910  0.1701E+01  0.8980E+01
   7.920  0.1715E+01  0.8997E+01
   7.930  0.1729E+01  0.9014E+01
   7.940  0.1746E+01  0.9032E+01
   7.950  0.1760E+01  0.9049E+01
   7.960  0.1773E+01  0.9067E+01
   7.970  0.1785E+01  0.9085E+01
   7.980  0.1796E+01  0.9103E+01
   7.990  0.1807E+01  0.9121E+01
   8.000  0.1817E+01  0.9139E+01
   8.010  0.1826E+01  0.9157E+01
   8.020  0.1834E+01  0.9175E+01
   8.030  0.1844E+01  0.9194E+01
   8.040  0.1853E+01  0.9212E+01
   8.050  0.1861E+01  0.9231E+01
   8.060  0.1860E+01  0.9249E+01
   8.070  0.1856E+01  0.9268E+01
   8.080  0.1841E+01  0.9287E+01
   8.090  0.1808E+01  0.9305E+01
   8.100  0.1776E+01  0.9323E+01
   8.110  0.1743E+01  0.9340E+01
   8.120  0.1720E+01  0.9358E+01
   8.130  0.1704E+01  0.9375E+01
   8.140  0.1689E+01  0.9392E+01
   8.150  0.1689E+01  0.9409E+01
   8.160  0.1727E+01  0.9426E+01
   8.170  0.1779E+01  0.9443E+01
   8.180  0.1753E+01  0.9461E+01
   8.190  0.1730E+01  0.9479E+01
   8.200  0.1710E+01  0.9496E+01
   8.210  0.1690E+01  0.9513E+01
   8.220  0.1669E+01  0.9530E+01
   8.230  0.1648E+01  0.9546E+01
   8.240  0.1627E+01  0.9562E+01
   8.250  0.1604E+01  0.9579E+01
   8.260  0.1581E+01  0.9595E+01
   8.270  0.1547E+01  0.9610E+01
   8.280  0.1524E+01  0.9626E+01
   8.290  0.1509E+01  0.9641E+01
   8.300  0.1494E+01  0.9656E+01
   8.310  0.1480E+01  0.9671E+01
   8.320  0.1471E+01  0.9685E+01
   8.330  0.1455E+01  0.9700E+01
   8.340  0.1439E+01  0.9715E+01
   8.350  0.1424E+01  0.9729E+01
   8.360  0.1411E+01  0.9743E+01
   8.370  0.1401E+01  0.9757E+01
   8.380  0.1394E+01  0.9771E+01
   8.390  0.1389E+01  0.9785E+01
   8.400  0.1378E+01  0.9799E+01
   8.410  0.1356E+01  0.9812E+01
   8.420  0.1349E+01  0.9826E+01
   8.430  0.1345E+01  0.9839E+01
   8.440  0.1337E+01  0.9853E+01
   8.450  0.1329E+01  0.9866E+01
   8.460  0.1320E+01  0.9879E+01
   8.470  0.1311E+01  0.9893E+01
   8.480  0.1302E+01  0.9906E+01
   8.490  0.1292E+01  0.9919E+01
   8.500  0.1281E+01  0.9932E+01
   8.510  0.1268E+01  0.9944E+01
   8.520  0.1254E+01  0.9957E+01
   8.530  0.1240E+01  0.9969E+01
   8.540  0.1231E+01  0.9982E+01
   8.550  0.1213E+01  0.9994E+01
   8.560  0.1192E+01  0.1001E+02
   8.570  0.1168E+01  0.1002E+02
   8.580  0.1143E+01  0.1003E+02
   8.590  0.1133E+01  0.1004E+02
   8.600  0.1215E+01  0.1005E+02
   8.610  0.1116E+01  0.1006E+02
   8.620  0.1078E+01  0.1007E+02
   8.630  0.1037E+01  0.1009E+02
   8.640  0.1005E+01  0.1010E+02
   8.650  0.9821E+00  0.1011E+02
   8.660  0.9651E+00  0.1012E+02
   8.670  0.9526E+00  0.1012E+02
   8.680  0.9409E+00  0.1013E+02
   8.690  0.9305E+00  0.1014E+02
   8.700  0.9210E+00  0.1015E+02
   8.710  0.9121E+00  0.1016E+02
   8.720  0.9039E+00  0.1017E+02
   8.730  0.8966E+00  0.1018E+02
   8.740  0.8901E+00  0.1019E+02
   8.750  0.8857E+00  0.1020E+02
   8.760  0.8833E+00  0.1021E+02
   8.770  0.8828E+00  0.1022E+02
   8.780  0.8843E+00  0.1022E+02
   8.790  0.8882E+00  0.1023E+02
   8.800  0.8970E+00  0.1024E+02
   8.810  0.9027E+00  0.1025E+02
   8.820  0.9124E+00  0.1026E+02
   8.830  0.9201E+00  0.1027E+02
   8.840  0.9244E+00  0.1028E+02
   8.850  0.9254E+00  0.1029E+02
   8.860  0.9270E+00  0.1030E+02
   8.870  0.9303E+00  0.1031E+02
   8.880  0.9339E+00  0.1032E+02
   8.890  0.9375E+00  0.1033E+02
   8.900  0.9431E+00  0.1033E+02
   8.910  0.9501E+00  0.1034E+02
   8.920  0.9584E+00  0.1035E+02
   8.930  0.9680E+00  0.1036E+02
   8.940  0.9784E+00  0.1037E+02
   8.950  0.9896E+00  0.1038E+02
   8.960  0.1001E+01  0.1039E+02
   8.970  0.1015E+01  0.1040E+02
   8.980  0.1036E+01  0.1041E+02
   8.990  0.1088E+01  0.1042E+02
   9.000  0.1194E+01  0.1044E+02
   9.010  0.1317E+01  0.1045E+02
   9.020  0.1457E+01  0.1046E+02
   9.030  0.1609E+01  0.1048E+02
   9.040  0.1801E+01  0.1049E+02
   9.050  0.2071E+01  0.1051E+02
   9.060  0.2346E+01  0.1054E+02
   9.070  0.2500E+01  0.1056E+02
   9.080  0.2628E+01  0.1059E+02
   9.090  0.2723E+01  0.1061E+02
   9.100  0.2736E+01  0.1064E+02
   9.110  0.2695E+01  0.1067E+02
   9.120  0.2591E+01  0.1069E+02
   9.130  0.2436E+01  0.1072E+02
   9.140  0.2331E+01  0.1074E+02
   9.150  0.2258E+01  0.1077E+02
   9.160  0.2197E+01  0.1079E+02
   9.170  0.2155E+01  0.1081E+02
   9.180  0.2123E+01  0.1083E+02
   9.190  0.2094E+01  0.1085E+02
   9.200  0.2069E+01  0.1087E+02
   9.210  0.2081E+01  0.1089E+02
   9.220  0.2062E+01  0.1091E+02
   9.230  0.2026E+01  0.1093E+02
   9.240  0.2008E+01  0.1095E+02
   9.250  0.1995E+01  0.1097E+02
   9.260  0.1988E+01  0.1099E+02
   9.270  0.1990E+01  0.1101E+02
   9.280  0.2007E+01  0.1103E+02
   9.290  0.2029E+01  0.1105E+02
   9.300  0.2051E+01  0.1107E+02
   9.310  0.2072E+01  0.1110E+02
   9.320  0.2093E+01  0.1112E+02
   9.330  0.2112E+01  0.1114E+02
   9.340  0.2125E+01  0.1116E+02
   9.350  0.2133E+01  0.1118E+02
   9.360  0.2143E+01  0.1120E+02
   9.370  0.2146E+01  0.1122E+02
   9.380  0.2130E+01  0.1124E+02
   9.390  0.2073E+01  0.1127E+02
   9.400  0.1999E+01  0.1129E+02
   9.410  0.1941E+01  0.1131E+02
   9.420  0.1914E+01  0.1132E+02
   9.430  0.1888E+01  0.1134E+02
   9.440  0.1864E+01  0.1136E+02
   9.450  0.1842E+01  0.1138E+02
   9.460  0.1824E+01  0.1140E+02
   9.470  0.1806E+01  0.1142E+02
   9.480  0.1789E+01  0.1144E+02
   9.490  0.1773E+01  0.1145E+02
   9.500  0.1757E+01  0.1147E+02
   9.510  0.1741E+01  0.1149E+02
   9.520  0.1725E+01  0.1151E+02
   9.530  0.1710E+01  0.1152E+02
   9.540  0.1695E+01  0.1154E+02
   9.550  0.1683E+01  0.1156E+02
   9.560  0.1672E+01  0.1157E+02
   9.570  0.1668E+01  0.1159E+02
   9.580  0.1663E+01  0.1161E+02
   9.590  0.1633E+01  0.1162E+02
   9.600  0.1604E+01  0.1164E+02
   9.610  0.1595E+01  0.1166E+02
   9.620  0.1585E+01  0.1167E+02
   9.630  0.1576E+01  0.1169E+02
   9.640  0.1564E+01  0.1170E+02
   9.650  0.1542E+01  0.1172E+02
   9.660  0.1508E+01  0.1173E+02
   9.670  0.1462E+01  0.1175E+02
   9.680  0.1438E+01  0.1176E+02
   9.690  0.1416E+01  0.1178E+02
   9.700  0.1394E+01  0.1179E+02
   9.710  0.1375E+01  0.1180E+02
   9.720  0.1360E+01  0.1182E+02
   9.730  0.1344E+01  0.1183E+02
   9.740  0.1329E+01  0.1185E+02
   9.750  0.1315E+01  0.1186E+02
   9.760  0.1301E+01  0.1187E+02
   9.770  0.1292E+01  0.1188E+02
   9.780  0.1282E+01  0.1190E+02
   9.790  0.1272E+01  0.1191E+02
   9.800  0.1262E+01  0.1192E+02
   9.810  0.1254E+01  0.1194E+02
   9.820  0.1247E+01  0.1195E+02
   9.830  0.1241E+01  0.1196E+02
   9.840  0.1234E+01  0.1197E+02
   9.850  0.1225E+01  0.1199E+02
   9.860  0.1215E+01  0.1200E+02
   9.870  0.1203E+01  0.1201E+02
   9.880  0.1189E+01  0.1202E+02
   9.890  0.1175E+01  0.1203E+02
   9.900  0.1161E+01  0.1205E+02
   9.910  0.1148E+01  0.1206E+02
   9.920  0.1139E+01  0.1207E+02
   9.930  0.1134E+01  0.1208E+02
   9.940  0.1129E+01  0.1209E+02
   9.950  0.1124E+01  0.1210E+02
   9.960  0.1119E+01  0.1211E+02
   9.970  0.1114E+01  0.1212E+02
   9.980  0.1110E+01  0.1214E+02
   9.990  0.1106E+01  0.1215E+02
  10.000  0.1104E+01  0.1216E+02
  10.010  0.1102E+01  0.1217E+02
  10.020  0.1101E+01  0.1218E+02
  10.030  0.1105E+01  0.1219E+02
  10.040  0.1112E+01  0.1220E+02
  10.050  0.1122E+01  0.1221E+02
  10.060  0.1135E+01  0.1222E+02
  10.070  0.1151E+01  0.1224E+02
  10.080  0.1170E+01  0.1225E+02
  10.090  0.1190E+01  0.1226E+02
  10.100  0.1212E+01  0.1227E+02
  10.110  0.1237E+01  0.1228E+02
  10.120  0.1263E+01  0.1230E+02
  10.130  0.1284E+01  0.1231E+02
  10.140  0.1303E+01  0.1232E+02
  10.150  0.1321E+01  0.1233E+02
  10.160  0.1323E+01  0.1235E+02
  10.170  0.1328E+01  0.1236E+02
  10.180  0.1346E+01  0.1237E+02
  10.190  0.1363E+01  0.1239E+02
  10.200  0.1370E+01  0.1240E+02
  10.210  0.1434E+01  0.1242E+02
  10.220  0.1392E+01  0.1243E+02
  10.230  0.1403E+01  0.1244E+02
  10.240  0.1414E+01  0.1246E+02
  10.250  0.1425E+01  0.1247E+02
  10.260  0.1438E+01  0.1249E+02
  10.270  0.1448E+01  0.1250E+02
  10.280  0.1450E+01  0.1252E+02
  10.290  0.1443E+01  0.1253E+02
  10.300  0.1434E+01  0.1254E+02
  10.310  0.1424E+01  0.1256E+02
  10.320  0.1413E+01  0.1257E+02
  10.330  0.1401E+01  0.1259E+02
  10.340  0.1387E+01  0.1260E+02
  10.350  0.1375E+01  0.1261E+02
  10.360  0.1362E+01  0.1263E+02
  10.370  0.1355E+01  0.1264E+02
  10.380  0.1361E+01  0.1266E+02
  10.390  0.1351E+01  0.1267E+02
  10.400  0.1338E+01  0.1268E+02
  10.410  0.1323E+01  0.1270E+02
  10.420  0.1312E+01  0.1271E+02
  10.430  0.1284E+01  0.1272E+02
  10.440  0.1258E+01  0.1273E+02
  10.450  0.1240E+01  0.1275E+02
  10.460  0.1229E+01  0.1276E+02
  10.470  0.1220E+01  0.1277E+02
  10.480  0.1213E+01  0.1278E+02
  10.490  0.1204E+01  0.1280E+02
  10.500  0.1197E+01  0.1281E+02
  10.510  0.1191E+01  0.1282E+02
  10.520  0.1187E+01  0.1283E+02
  10.530  0.1186E+01  0.1284E+02
  10.540  0.1190E+01  0.1286E+02
  10.550  0.1190E+01  0.1287E+02
  10.560  0.1182E+01  0.1288E+02
  10.570  0.1178E+01  0.1289E+02
  10.580  0.1177E+01  0.1290E+02
  10.590  0.1175E+01  0.1291E+02
  10.600  0.1172E+01  0.1293E+02
  10.610  0.1169E+01  0.1294E+02
  10.620  0.1165E+01  0.1295E+02
  10.630  0.1163E+01  0.1296E+02
  10.640  0.1162E+01  0.1297E+02
  10.650  0.1162E+01  0.1298E+02
  10.660  0.1164E+01  0.1300E+02
  10.670  0.1167E+01  0.1301E+02
  10.680  0.1171E+01  0.1302E+02
  10.690  0.1176E+01  0.1303E+02
  10.700  0.1181E+01  0.1304E+02
  10.710  0.1188E+01  0.1305E+02
  10.720  0.1195E+01  0.1307E+02
  10.730  0.1202E+01  0.1308E+02
  10.740  0.1209E+01  0.1309E+02
  10.750  0.1223E+01  0.1310E+02
  10.760  0.1233E+01  0.1311E+02
  10.770  0.1243E+01  0.1313E+02
  10.780  0.1254E+01  0.1314E+02
  10.790  0.1266E+01  0.1315E+02
  10.800  0.1278E+01  0.1317E+02
  10.810  0.1289E+01  0.1318E+02
  10.820  0.1303E+01  0.1319E+02
  10.830  0.1325E+01  0.1320E+02
  10.840  0.1345E+01  0.1322E+02
  10.850  0.1363E+01  0.1323E+02
  10.860  0.1373E+01  0.1324E+02
  10.870  0.1376E+01  0.1326E+02
  10.880  0.1377E+01  0.1327E+02
  10.890  0.1372E+01  0.1329E+02
  10.900  0.1377E+01  0.1330E+02
  10.910  0.1380E+01  0.1331E+02
  10.920  0.1380E+01  0.1333E+02
  10.930  0.1377E+01  0.1334E+02
  10.940  0.1372E+01  0.1335E+02
  10.950  0.1365E+01  0.1337E+02
  10.960  0.1356E+01  0.1338E+02
  10.970  0.1345E+01  0.1340E+02
  10.980  0.1332E+01  0.1341E+02
  10.990  0.1317E+01  0.1342E+02
  11.000  0.1299E+01  0.1344E+02
  11.010  0.1279E+01  0.1345E+02
  11.020  0.1258E+01  0.1346E+02
  11.030  0.1236E+01  0.1347E+02
  11.040  0.1232E+01  0.1349E+02
  11.050  0.1215E+01  0.1350E+02
  11.060  0.1203E+01  0.1351E+02
  11.070  0.1197E+01  0.1352E+02
  11.080  0.1191E+01  0.1353E+02
  11.090  0.1186E+01  0.1355E+02
  11.100  0.1181E+01  0.1356E+02
  11.110  0.1176E+01  0.1357E+02
  11.120  0.1173E+01  0.1358E+02
  11.130  0.1170E+01  0.1359E+02
  11.140  0.1168E+01  0.1360E+02
  11.150  0.1170E+01  0.1362E+02
  11.160  0.1188E+01  0.1363E+02
  11.170  0.1192E+01  0.1364E+02
  11.180  0.1190E+01  0.1365E+02
  11.190  0.1187E+01  0.1366E+02
  11.200  0.1186E+01  0.1368E+02
  11.210  0.1184E+01  0.1369E+02
  11.220  0.1182E+01  0.1370E+02
  11.230  0.1180E+01  0.1371E+02
  11.240  0.1177E+01  0.1372E+02
  11.250  0.1174E+01  0.1373E+02
  11.260  0.1168E+01  0.1375E+02
  11.270  0.1166E+01  0.1376E+02
  11.280  0.1165E+01  0.1377E+02
  11.290  0.1161E+01  0.1378E+02
  11.300  0.1156E+01  0.1379E+02
  11.310  0.1150E+01  0.1380E+02
  11.320  0.1144E+01  0.1382E+02
  11.330  0.1139E+01  0.1383E+02
  11.340  0.1133E+01  0.1384E+02
  11.350  0.1126E+01  0.1385E+02
  11.360  0.1119E+01  0.1386E+02
  11.370  0.1112E+01  0.1387E+02
  11.380  0.1106E+01  0.1388E+02
  11.390  0.1099E+01  0.1389E+02
  11.400  0.1093E+01  0.1391E+02
  11.410  0.1087E+01  0.1392E+02
  11.420  0.1082E+01  0.1393E+02
  11.430  0.1077E+01  0.1394E+02
  11.440  0.1073E+01  0.1395E+02
  11.450  0.1068E+01  0.1396E+02
  11.460  0.1064E+01  0.1397E+02
  11.470  0.1061E+01  0.1398E+02
  11.480  0.1060E+01  0.1399E+02
  11.490  0.1058E+01  0.1400E+02
  11.500  0.1056E+01  0.1401E+02
  11.510  0.1055E+01  0.1402E+02
  11.520  0.1055E+01  0.1403E+02
  11.530  0.1054E+01  0.1404E+02
  11.540  0.1053E+01  0.1405E+02
  11.550  0.1053E+01  0.1407E+02
  11.560  0.1054E+01  0.1408E+02
  11.570  0.1056E+01  0.1409E+02
  11.580  0.1059E+01  0.1410E+02
  11.590  0.1063E+01  0.1411E+02
  11.600  0.1066E+01  0.1412E+02
  11.610  0.1070E+01  0.1413E+02
  11.620  0.1073E+01  0.1414E+02
  11.630  0.1077E+01  0.1415E+02
  11.640  0.1081E+01  0.1416E+02
  11.650  0.1084E+01  0.1417E+02
  11.660  0.1088E+01  0.1418E+02
  11.670  0.1092E+01  0.1419E+02
  11.680  0.1096E+01  0.1420E+02
  11.690  0.1099E+01  0.1422E+02
  11.700  0.1101E+01  0.1423E+02
  11.710  0.1103E+01  0.1424E+02
  11.720  0.1105E+01  0.1425E+02
  11.730  0.1107E+01  0.1426E+02
  11.740  0.1079E+01  0.1427E+02
  11.750  0.1045E+01  0.1428E+02
  11.760  0.1010E+01  0.1429E+02
  11.770  0.9755E+00  0.1430E+02
  11.780  0.9579E+00  0.1431E+02
  11.790  0.9480E+00  0.1432E+02
  11.800  0.9381E+00  0.1433E+02
  11.810  0.9288E+00  0.1434E+02
  11.820  0.9201E+00  0.1435E+02
  11.830  0.9134E+00  0.1436E+02
  11.840  0.9094E+00  0.1437E+02
  11.850  0.9079E+00  0.1438E+02
  11.860  0.9082E+00  0.1439E+02
  11.870  0.9090E+00  0.1439E+02
  11.880  0.9092E+00  0.1440E+02
  11.890  0.9112E+00  0.1441E+02
  11.900  0.9156E+00  0.1442E+02
  11.910  0.9202E+00  0.1443E+02
  11.920  0.9238E+00  0.1444E+02
  11.930  0.9237E+00  0.1445E+02
  11.940  0.9268E+00  0.1446E+02
  11.950  0.9331E+00  0.1447E+02
  11.960  0.9402E+00  0.1448E+02
  11.970  0.9481E+00  0.1449E+02
  11.980  0.9567E+00  0.1450E+02
  11.990  0.9660E+00  0.1451E+02
  12.000  0.9758E+00  0.1452E+02
  12.010  0.9861E+00  0.1453E+02
  12.020  0.9971E+00  0.1454E+02
  12.030  0.1009E+01  0.1455E+02
  12.040  0.1020E+01  0.1456E+02
  12.050  0.1031E+01  0.1457E+02
  12.060  0.1043E+01  0.1458E+02
  12.070  0.1060E+01  0.1459E+02
  12.080  0.1069E+01  0.1460E+02
  12.090  0.1070E+01  0.1461E+02
  12.100  0.1072E+01  0.1462E+02
  12.110  0.1079E+01  0.1463E+02
  12.120  0.1083E+01  0.1464E+02
  12.130  0.1082E+01  0.1465E+02
  12.140  0.1079E+01  0.1466E+02
  12.150  0.1076E+01  0.1467E+02
  12.160  0.1073E+01  0.1468E+02
  12.170  0.1069E+01  0.1469E+02
  12.180  0.1065E+01  0.1470E+02
  12.190  0.1059E+01  0.1472E+02
  12.200  0.1048E+01  0.1473E+02
  12.210  0.1034E+01  0.1474E+02
  12.220  0.1017E+01  0.1475E+02
  12.230  0.1008E+01  0.1476E+02
  12.240  0.1005E+01  0.1477E+02
  12.250  0.1003E+01  0.1478E+02
  12.260  0.1002E+01  0.1479E+02
  12.270  0.1001E+01  0.1480E+02
  12.280  0.1001E+01  0.1481E+02
  12.290  0.1001E+01  0.1482E+02
  12.300  0.1000E+01  0.1483E+02
  12.310  0.9999E+00  0.1484E+02
  12.320  0.9992E+00  0.1485E+02
  12.330  0.9983E+00  0.1486E+02
  12.340  0.9971E+00  0.1487E+02
  12.350  0.9958E+00  0.1488E+02
  12.360  0.9941E+00  0.1489E+02
  12.370  0.9922E+00  0.1490E+02
  12.380  0.9911E+00  0.1491E+02
  12.390  0.9899E+00  0.1492E+02
  12.400  0.9885E+00  0.1493E+02
  12.410  0.9869E+00  0.1494E+02
  12.420  0.9850E+00  0.1495E+02
  12.430  0.9830E+00  0.1496E+02
  12.440  0.9808E+00  0.1497E+02
  12.450  0.9803E+00  0.1498E+02
  12.460  0.9815E+00  0.1499E+02
  12.470  0.9820E+00  0.1499E+02
  12.480  0.9821E+00  0.1500E+02
  12.490  0.9814E+00  0.1501E+02
  12.500  0.9790E+00  0.1502E+02
  12.510  0.9743E+00  0.1503E+02
  12.520  0.9691E+00  0.1504E+02
  12.530  0.9637E+00  0.1505E+02
  12.540  0.9579E+00  0.1506E+02
  12.550  0.9520E+00  0.1507E+02
  12.560  0.9458E+00  0.1508E+02
  12.570  0.9394E+00  0.1509E+02
  12.580  0.9323E+00  0.1510E+02
  12.590  0.9249E+00  0.1511E+02
  12.600  0.9170E+00  0.1512E+02
  12.610  0.9089E+00  0.1513E+02
  12.620  0.9006E+00  0.1514E+02
  12.630  0.8919E+00  0.1515E+02
  12.640  0.8829E+00  0.1516E+02
  12.650  0.8734E+00  0.1516E+02
  12.660  0.8635E+00  0.1517E+02
  12.670  0.8548E+00  0.1518E+02
  12.680  0.8462E+00  0.1519E+02
  12.690  0.8378E+00  0.1520E+02
  12.700  0.8294E+00  0.1521E+02
  12.710  0.8210E+00  0.1522E+02
  12.720  0.8125E+00  0.1522E+02
  12.730  0.8041E+00  0.1523E+02
  12.740  0.7958E+00  0.1524E+02
  12.750  0.7876E+00  0.1525E+02
  12.760  0.7794E+00  0.1526E+02
  12.770  0.7713E+00  0.1526E+02
  12.780  0.7628E+00  0.1527E+02
  12.790  0.7584E+00  0.1528E+02
  12.800  0.7515E+00  0.1529E+02
  12.810  0.7439E+00  0.1529E+02
  12.820  0.7367E+00  0.1530E+02
  12.830  0.7300E+00  0.1531E+02
  12.840  0.7236E+00  0.1532E+02
  12.850  0.7176E+00  0.1532E+02
  12.860  0.7117E+00  0.1533E+02
  12.870  0.7061E+00  0.1534E+02
  12.880  0.7008E+00  0.1534E+02
  12.890  0.6957E+00  0.1535E+02
  12.900  0.6909E+00  0.1536E+02
  12.910  0.6859E+00  0.1536E+02
  12.920  0.6809E+00  0.1537E+02
  12.930  0.6761E+00  0.1538E+02
  12.940  0.6714E+00  0.1538E+02
  12.950  0.6669E+00  0.1539E+02
  12.960  0.6625E+00  0.1540E+02
  12.970  0.6582E+00  0.1540E+02
  12.980  0.6541E+00  0.1541E+02
  12.990  0.6501E+00  0.1542E+02
  13.000  0.6463E+00  0.1542E+02
  13.010  0.6441E+00  0.1543E+02
  13.020  0.6445E+00  0.1544E+02
  13.030  0.6471E+00  0.1544E+02
  13.040  0.6514E+00  0.1545E+02
  13.050  0.6406E+00  0.1546E+02
  13.060  0.6347E+00  0.1546E+02
  13.070  0.6334E+00  0.1547E+02
  13.080  0.6330E+00  0.1548E+02
  13.090  0.6326E+00  0.1548E+02
  13.100  0.6322E+00  0.1549E+02
  13.110  0.6311E+00  0.1549E+02
  13.120  0.6315E+00  0.1550E+02
  13.130  0.6295E+00  0.1551E+02
  13.140  0.6193E+00  0.1551E+02
  13.150  0.5982E+00  0.1552E+02
  13.160  0.5828E+00  0.1553E+02
  13.170  0.5708E+00  0.1553E+02
  13.180  0.5603E+00  0.1554E+02
  13.190  0.5518E+00  0.1554E+02
  13.200  0.5454E+00  0.1555E+02
  13.210  0.5425E+00  0.1555E+02
  13.220  0.5405E+00  0.1556E+02
  13.230  0.5383E+00  0.1556E+02
  13.240  0.5359E+00  0.1557E+02
  13.250  0.5333E+00  0.1557E+02
  13.260  0.5305E+00  0.1558E+02
  13.270  0.5276E+00  0.1559E+02
  13.280  0.5249E+00  0.1559E+02
  13.290  0.5224E+00  0.1560E+02
  13.300  0.5199E+00  0.1560E+02
  13.310  0.5177E+00  0.1561E+02
  13.320  0.5155E+00  0.1561E+02
  13.330  0.5136E+00  0.1562E+02
  13.340  0.5118E+00  0.1562E+02
  13.350  0.5101E+00  0.1563E+02
  13.360  0.5086E+00  0.1563E+02
  13.370  0.5072E+00  0.1564E+02
  13.380  0.5059E+00  0.1564E+02
  13.390  0.5048E+00  0.1565E+02
  13.400  0.5038E+00  0.1565E+02
  13.410  0.5029E+00  0.1566E+02
  13.420  0.5022E+00  0.1566E+02
  13.430  0.5410E+00  0.1567E+02
  13.440  0.5735E+00  0.1567E+02
  13.450  0.5828E+00  0.1568E+02
  13.460  0.5870E+00  0.1568E+02
  13.470  0.5867E+00  0.1569E+02
  13.480  0.5843E+00  0.1570E+02
  13.490  0.5822E+00  0.1570E+02
  13.500  0.5803E+00  0.1571E+02
  13.510  0.5787E+00  0.1571E+02
  13.520  0.5774E+00  0.1572E+02
  13.530  0.5763E+00  0.1573E+02
  13.540  0.5752E+00  0.1573E+02
  13.550  0.5624E+00  0.1574E+02
  13.560  0.5685E+00  0.1574E+02
  13.570  0.5528E+00  0.1575E+02
  13.580  0.4412E+00  0.1575E+02
  13.590  0.4273E+00  0.1576E+02
  13.600  0.4142E+00  0.1576E+02
  13.610  0.4019E+00  0.1577E+02
  13.620  0.3906E+00  0.1577E+02
  13.630  0.3798E+00  0.1577E+02
  13.640  0.3696E+00  0.1578E+02
  13.650  0.3596E+00  0.1578E+02
  13.660  0.3499E+00  0.1578E+02
  13.670  0.3404E+00  0.1579E+02
  13.680  0.3312E+00  0.1579E+02
  13.690  0.3223E+00  0.1579E+02
  13.700  0.3135E+00  0.1580E+02
  13.710  0.3047E+00  0.1580E+02
  13.720  0.2956E+00  0.1580E+02
  13.730  0.2857E+00  0.1581E+02
  13.740  0.2763E+00  0.1581E+02
  13.750  0.2680E+00  0.1581E+02
  13.760  0.2610E+00  0.1581E+02
  13.770  0.2553E+00  0.1582E+02
  13.780  0.2508E+00  0.1582E+02
  13.790  0.2475E+00  0.1582E+02
  13.800  0.2454E+00  0.1583E+02
  13.810  0.2440E+00  0.1583E+02
  13.820  0.2426E+00  0.1583E+02
  13.830  0.2412E+00  0.1583E+02
  13.840  0.2400E+00  0.1583E+02
  13.850  0.2389E+00  0.1584E+02
  13.860  0.2376E+00  0.1584E+02
  13.870  0.2363E+00  0.1584E+02
  13.880  0.2350E+00  0.1584E+02
  13.890  0.2337E+00  0.1585E+02
  13.900  0.2324E+00  0.1585E+02
  13.910  0.2311E+00  0.1585E+02
  13.920  0.2298E+00  0.1585E+02
  13.930  0.2281E+00  0.1586E+02
  13.940  0.2263E+00  0.1586E+02
  13.950  0.2245E+00  0.1586E+02
  13.960  0.2228E+00  0.1586E+02
  13.970  0.2211E+00  0.1586E+02
  13.980  0.2196E+00  0.1587E+02
  13.990  0.2184E+00  0.1587E+02
  14.000  0.2173E+00  0.1587E+02
  14.010  0.2164E+00  0.1587E+02
  14.020  0.2157E+00  0.1588E+02
  14.030  0.2152E+00  0.1588E+02
  14.040  0.2149E+00  0.1588E+02
  14.050  0.2121E+00  0.1588E+02
  14.060  0.2102E+00  0.1588E+02
  14.070  0.2100E+00  0.1589E+02
  14.080  0.2113E+00  0.1589E+02
  14.090  0.2066E+00  0.1589E+02
  14.100  0.2020E+00  0.1589E+02
  14.110  0.2068E+00  0.1589E+02
  14.120  0.2054E+00  0.1590E+02
  14.130  0.1665E+00  0.1590E+02
  14.140  0.1630E+00  0.1590E+02
  14.150  0.1613E+00  0.1590E+02
  14.160  0.1596E+00  0.1590E+02
  14.170  0.1580E+00  0.1591E+02
  14.180  0.1563E+00  0.1591E+02
  14.190  0.1547E+00  0.1591E+02
  14.200  0.1530E+00  0.1591E+02
  14.210  0.1514E+00  0.1591E+02
  14.220  0.1498E+00  0.1591E+02
  14.230  0.1482E+00  0.1591E+02
  14.240  0.1466E+00  0.1592E+02
  14.250  0.1450E+00  0.1592E+02
  14.260  0.1434E+00  0.1592E+02
  14.270  0.1418E+00  0.1592E+02
  14.280  0.1403E+00  0.1592E+02
  14.290  0.1387E+00  0.1592E+02
  14.300  0.1372E+00  0.1592E+02
  14.310  0.1357E+00  0.1593E+02
  14.320  0.1342E+00  0.1593E+02
  14.330  0.1327E+00  0.1593E+02
  14.340  0.1312E+00  0.1593E+02
  14.350  0.1297E+00  0.1593E+02
  14.360  0.1282E+00  0.1593E+02
  14.370  0.1267E+00  0.1593E+02
  14.380  0.1253E+00  0.1593E+02
  14.390  0.1239E+00  0.1594E+02
  14.400  0.1224E+00  0.1594E+02
  14.410  0.1210E+00  0.1594E+02
  14.420  0.1196E+00  0.1594E+02
  14.430  0.1182E+00  0.1594E+02
  14.440  0.1168E+00  0.1594E+02
  14.450  0.1154E+00  0.1594E+02
  14.460  0.1141E+00  0.1594E+02
  14.470  0.1127E+00  0.1595E+02
  14.480  0.1114E+00  0.1595E+02
  14.490  0.1100E+00  0.1595E+02
  14.500  0.1087E+00  0.1595E+02
  14.510  0.1074E+00  0.1595E+02
  14.520  0.1061E+00  0.1595E+02
  14.530  0.1048E+00  0.1595E+02
  14.540  0.1035E+00  0.1595E+02
  14.550  0.1022E+00  0.1595E+02
  14.560  0.1009E+00  0.1595E+02
  14.570  0.9969E-01  0.1596E+02
  14.580  0.9845E-01  0.1596E+02
  14.590  0.9724E-01  0.1596E+02
  14.600  0.9604E-01  0.1596E+02
  14.610  0.9487E-01  0.1596E+02
  14.620  0.9372E-01  0.1596E+02
  14.630  0.9259E-01  0.1596E+02
  14.640  0.9148E-01  0.1596E+02
  14.650  0.9039E-01  0.1596E+02
  14.660  0.8932E-01  0.1596E+02
  14.670  0.8828E-01  0.1597E+02
  14.680  0.8726E-01  0.1597E+02
  14.690  0.8626E-01  0.1597E+02
  14.700  0.8528E-01  0.1597E+02
  14.710  0.8432E-01  0.1597E+02
  14.720  0.8339E-01  0.1597E+02
  14.730  0.8248E-01  0.1597E+02
  14.740  0.8159E-01  0.1597E+02
  14.750  0.8073E-01  0.1597E+02
  14.760  0.7989E-01  0.1597E+02
  14.770  0.8061E-01  0.1597E+02
  14.780  0.8282E-01  0.1597E+02
  14.790  0.8442E-01  0.1598E+02
  14.800  0.8542E-01  0.1598E+02
  14.810  0.8581E-01  0.1598E+02
  14.820  0.8537E-01  0.1598E+02
  14.830  0.8432E-01  0.1598E+02
  14.840  0.8311E-01  0.1598E+02
  14.850  0.8195E-01  0.1598E+02
  14.860  0.8084E-01  0.1598E+02
  14.870  0.7979E-01  0.1598E+02
  14.880  0.7880E-01  0.1598E+02
  14.890  0.7786E-01  0.1598E+02
  14.900  0.7697E-01  0.1598E+02
  14.910  0.7614E-01  0.1599E+02
  14.920  0.7537E-01  0.1599E+02
  14.930  0.7465E-01  0.1599E+02
  14.940  0.7399E-01  0.1599E+02
  14.950  0.7338E-01  0.1599E+02
  14.960  0.7283E-01  0.1599E+02
  14.970  0.7233E-01  0.1599E+02
  14.980  0.7189E-01  0.1599E+02
  14.990  0.7149E-01  0.1599E+02
  15.000  0.7115E-01  0.1599E+02
  15.010  0.8178E-01  0.1599E+02
  15.020  0.9194E-01  0.1599E+02
  15.030  0.7505E-01  0.1599E+02
  15.040  0.5351E-01  0.1599E+02
  15.050  0.4967E-01  0.1600E+02
  15.060  0.4454E-01  0.1600E+02
  15.070  0.3813E-01  0.1600E+02
  15.080  0.3044E-01  0.1600E+02
  15.090  0.2296E-01  0.1600E+02
  15.100  0.2185E-01  0.1600E+02
  15.110  0.2076E-01  0.1600E+02
  15.120  0.1971E-01  0.1600E+02
  15.130  0.1868E-01  0.1600E+02
  15.140  0.1767E-01  0.1600E+02
  15.150  0.1670E-01  0.1600E+02
  15.160  0.1575E-01  0.1600E+02
  15.170  0.1484E-01  0.1600E+02
  15.180  0.1394E-01  0.1600E+02
  15.190  0.1308E-01  0.1600E+02
  15.200  0.1224E-01  0.1600E+02
  15.210  0.1144E-01  0.1600E+02
  15.220  0.1065E-01  0.1600E+02
  15.230  0.9902E-02  0.1600E+02
  15.240  0.9176E-02  0.1600E+02
  15.250  0.8478E-02  0.1600E+02
  15.260  0.7808E-02  0.1600E+02
  15.270  0.7165E-02  0.1600E+02
  15.280  0.6550E-02  0.1600E+02
  15.290  0.5962E-02  0.1600E+02
  15.300  0.5402E-02  0.1600E+02
  15.310  0.4870E-02  0.1600E+02
  15.320  0.4365E-02  0.1600E+02
  15.330  0.3888E-02  0.1600E+02
  15.340  0.3438E-02  0.1600E+02
  15.350  0.3016E-02  0.1600E+02
  15.360  0.2622E-02  0.1600E+02
  15.370  0.2255E-02  0.1600E+02
  15.380  0.1916E-02  0.1600E+02
  15.390  0.1605E-02  0.1600E+02
  15.400  0.1321E-02  0.1600E+02
  15.410  0.1065E-02  0.1600E+02
  15.420  0.8360E-03  0.1600E+02
  15.430  0.6349E-03  0.1600E+02
  15.440  0.4615E-03  0.1600E+02
  15.450  0.3157E-03  0.1600E+02
  15.460  0.1975E-03  0.1600E+02
  15.470  0.1068E-03  0.1600E+02
  15.480  0.4384E-04  0.1600E+02
  15.490  0.8442E-05  0.1600E+02
