# E (eV) pdos(E) 
 -5.910  0.000E+00
 -5.900  0.282E-04
 -5.890  0.226E-03
 -5.880  0.760E-03
 -5.870  0.166E-02
 -5.860  0.180E-02
 -5.850  0.234E-02
 -5.840  0.298E-02
 -5.830  0.372E-02
 -5.820  0.454E-02
 -5.810  0.546E-02
 -5.800  0.646E-02
 -5.790  0.738E-02
 -5.780  0.820E-02
 -5.770  0.886E-02
 -5.760  0.952E-02
 -5.750  0.104E-01
 -5.740  0.113E-01
 -5.730  0.123E-01
 -5.720  0.133E-01
 -5.710  0.143E-01
 -5.700  0.154E-01
 -5.690  0.165E-01
 -5.680  0.177E-01
 -5.670  0.189E-01
 -5.660  0.198E-01
 -5.650  0.206E-01
 -5.640  0.216E-01
 -5.630  0.226E-01
 -5.620  0.236E-01
 -5.610  0.246E-01
 -5.600  0.256E-01
 -5.590  0.266E-01
 -5.580  0.276E-01
 -5.570  0.286E-01
 -5.560  0.298E-01
 -5.550  0.308E-01
 -5.540  0.320E-01
 -5.530  0.332E-01
 -5.520  0.344E-01
 -5.510  0.356E-01
 -5.500  0.368E-01
 -5.490  0.380E-01
 -5.480  0.392E-01
 -5.470  0.402E-01
 -5.460  0.410E-01
 -5.450  0.420E-01
 -5.440  0.430E-01
 -5.430  0.440E-01
 -5.420  0.450E-01
 -5.410  0.462E-01
 -5.400  0.472E-01
 -5.390  0.482E-01
 -5.380  0.492E-01
 -5.370  0.504E-01
 -5.360  0.514E-01
 -5.350  0.524E-01
 -5.340  0.536E-01
 -5.330  0.548E-01
 -5.320  0.558E-01
 -5.310  0.570E-01
 -5.300  0.582E-01
 -5.290  0.594E-01
 -5.280  0.606E-01
 -5.270  0.618E-01
 -5.260  0.630E-01
 -5.250  0.640E-01
 -5.240  0.648E-01
 -5.230  0.660E-01
 -5.220  0.670E-01
 -5.210  0.678E-01
 -5.200  0.688E-01
 -5.190  0.698E-01
 -5.180  0.708E-01
 -5.170  0.718E-01
 -5.160  0.728E-01
 -5.150  0.738E-01
 -5.140  0.750E-01
 -5.130  0.760E-01
 -5.120  0.770E-01
 -5.110  0.780E-01
 -5.100  0.792E-01
 -5.090  0.802E-01
 -5.080  0.812E-01
 -5.070  0.824E-01
 -5.060  0.834E-01
 -5.050  0.844E-01
 -5.040  0.856E-01
 -5.030  0.866E-01
 -5.020  0.878E-01
 -5.010  0.890E-01
 -5.000  0.900E-01
 -4.990  0.912E-01
 -4.980  0.922E-01
 -4.970  0.932E-01
 -4.960  0.940E-01
 -4.950  0.950E-01
 -4.940  0.960E-01
 -4.930  0.970E-01
 -4.920  0.980E-01
 -4.910  0.990E-01
 -4.900  0.100E+00
 -4.890  0.101E+00
 -4.880  0.102E+00
 -4.870  0.103E+00
 -4.860  0.104E+00
 -4.850  0.105E+00
 -4.840  0.106E+00
 -4.830  0.107E+00
 -4.820  0.108E+00
 -4.810  0.109E+00
 -4.800  0.110E+00
 -4.790  0.111E+00
 -4.780  0.112E+00
 -4.770  0.113E+00
 -4.760  0.114E+00
 -4.750  0.115E+00
 -4.740  0.116E+00
 -4.730  0.117E+00
 -4.720  0.118E+00
 -4.710  0.119E+00
 -4.700  0.120E+00
 -4.690  0.121E+00
 -4.680  0.122E+00
 -4.670  0.123E+00
 -4.660  0.124E+00
 -4.650  0.125E+00
 -4.640  0.126E+00
 -4.630  0.127E+00
 -4.620  0.128E+00
 -4.610  0.129E+00
 -4.600  0.130E+00
 -4.590  0.131E+00
 -4.580  0.132E+00
 -4.570  0.133E+00
 -4.560  0.134E+00
 -4.550  0.135E+00
 -4.540  0.136E+00
 -4.530  0.137E+00
 -4.520  0.138E+00
 -4.510  0.139E+00
 -4.500  0.140E+00
 -4.490  0.141E+00
 -4.480  0.142E+00
 -4.470  0.143E+00
 -4.460  0.144E+00
 -4.450  0.145E+00
 -4.440  0.146E+00
 -4.430  0.147E+00
 -4.420  0.148E+00
 -4.410  0.149E+00
 -4.400  0.150E+00
 -4.390  0.151E+00
 -4.380  0.152E+00
 -4.370  0.153E+00
 -4.360  0.154E+00
 -4.350  0.155E+00
 -4.340  0.156E+00
 -4.330  0.157E+00
 -4.320  0.158E+00
 -4.310  0.159E+00
 -4.300  0.160E+00
 -4.290  0.161E+00
 -4.280  0.162E+00
 -4.270  0.164E+00
 -4.260  0.165E+00
 -4.250  0.166E+00
 -4.240  0.167E+00
 -4.230  0.168E+00
 -4.220  0.169E+00
 -4.210  0.170E+00
 -4.200  0.171E+00
 -4.190  0.172E+00
 -4.180  0.173E+00
 -4.170  0.174E+00
 -4.160  0.175E+00
 -4.150  0.177E+00
 -4.140  0.178E+00
 -4.130  0.179E+00
 -4.120  0.180E+00
 -4.110  0.181E+00
 -4.100  0.182E+00
 -4.090  0.183E+00
 -4.080  0.185E+00
 -4.070  0.186E+00
 -4.060  0.187E+00
 -4.050  0.188E+00
 -4.040  0.190E+00
 -4.030  0.191E+00
 -4.020  0.192E+00
 -4.010  0.193E+00
 -4.000  0.195E+00
 -3.990  0.196E+00
 -3.980  0.198E+00
 -3.970  0.199E+00
 -3.960  0.200E+00
 -3.950  0.202E+00
 -3.940  0.204E+00
 -3.930  0.204E+00
 -3.920  0.206E+00
 -3.910  0.208E+00
 -3.900  0.208E+00
 -3.890  0.210E+00
 -3.880  0.212E+00
 -3.870  0.214E+00
 -3.860  0.216E+00
 -3.850  0.218E+00
 -3.840  0.220E+00
 -3.830  0.222E+00
 -3.820  0.224E+00
 -3.810  0.226E+00
 -3.800  0.228E+00
 -3.790  0.230E+00
 -3.780  0.232E+00
 -3.770  0.236E+00
 -3.760  0.238E+00
 -3.750  0.240E+00
 -3.740  0.244E+00
 -3.730  0.246E+00
 -3.720  0.250E+00
 -3.710  0.258E+00
 -3.700  0.268E+00
 -3.690  0.282E+00
 -3.680  0.290E+00
 -3.670  0.274E+00
 -3.660  0.272E+00
 -3.650  0.272E+00
 -3.640  0.272E+00
 -3.630  0.272E+00
 -3.620  0.274E+00
 -3.610  0.274E+00
 -3.600  0.272E+00
 -3.590  0.270E+00
 -3.580  0.266E+00
 -3.570  0.264E+00
 -3.560  0.266E+00
 -3.550  0.268E+00
 -3.540  0.270E+00
 -3.530  0.272E+00
 -3.520  0.274E+00
 -3.510  0.274E+00
 -3.500  0.274E+00
 -3.490  0.272E+00
 -3.480  0.270E+00
 -3.470  0.268E+00
 -3.460  0.266E+00
 -3.450  0.266E+00
 -3.440  0.264E+00
 -3.430  0.264E+00
 -3.420  0.264E+00
 -3.410  0.262E+00
 -3.400  0.262E+00
 -3.390  0.262E+00
 -3.380  0.262E+00
 -3.370  0.262E+00
 -3.360  0.262E+00
 -3.350  0.260E+00
 -3.340  0.260E+00
 -3.330  0.260E+00
 -3.320  0.258E+00
 -3.310  0.258E+00
 -3.300  0.256E+00
 -3.290  0.256E+00
 -3.280  0.254E+00
 -3.270  0.252E+00
 -3.260  0.250E+00
 -3.250  0.250E+00
 -3.240  0.250E+00
 -3.230  0.250E+00
 -3.220  0.250E+00
 -3.210  0.248E+00
 -3.200  0.248E+00
 -3.190  0.248E+00
 -3.180  0.248E+00
 -3.170  0.248E+00
 -3.160  0.248E+00
 -3.150  0.248E+00
 -3.140  0.246E+00
 -3.130  0.246E+00
 -3.120  0.246E+00
 -3.110  0.244E+00
 -3.100  0.244E+00
 -3.090  0.242E+00
 -3.080  0.240E+00
 -3.070  0.240E+00
 -3.060  0.238E+00
 -3.050  0.236E+00
 -3.040  0.234E+00
 -3.030  0.234E+00
 -3.020  0.232E+00
 -3.010  0.232E+00
 -3.000  0.232E+00
 -2.990  0.230E+00
 -2.980  0.230E+00
 -2.970  0.230E+00
 -2.960  0.228E+00
 -2.950  0.228E+00
 -2.940  0.228E+00
 -2.930  0.226E+00
 -2.920  0.226E+00
 -2.910  0.224E+00
 -2.900  0.224E+00
 -2.890  0.222E+00
 -2.880  0.222E+00
 -2.870  0.222E+00
 -2.860  0.220E+00
 -2.850  0.220E+00
 -2.840  0.218E+00
 -2.830  0.218E+00
 -2.820  0.216E+00
 -2.810  0.216E+00
 -2.800  0.214E+00
 -2.790  0.212E+00
 -2.780  0.210E+00
 -2.770  0.210E+00
 -2.760  0.208E+00
 -2.750  0.208E+00
 -2.740  0.206E+00
 -2.730  0.204E+00
 -2.720  0.204E+00
 -2.710  0.202E+00
 -2.700  0.202E+00
 -2.690  0.202E+00
 -2.680  0.200E+00
 -2.670  0.199E+00
 -2.660  0.198E+00
 -2.650  0.197E+00
 -2.640  0.196E+00
 -2.630  0.195E+00
 -2.620  0.194E+00
 -2.610  0.193E+00
 -2.600  0.192E+00
 -2.590  0.191E+00
 -2.580  0.190E+00
 -2.570  0.189E+00
 -2.560  0.187E+00
 -2.550  0.186E+00
 -2.540  0.185E+00
 -2.530  0.184E+00
 -2.520  0.182E+00
 -2.510  0.181E+00
 -2.500  0.180E+00
 -2.490  0.178E+00
 -2.480  0.177E+00
 -2.470  0.175E+00
 -2.460  0.174E+00
 -2.450  0.173E+00
 -2.440  0.172E+00
 -2.430  0.170E+00
 -2.420  0.169E+00
 -2.410  0.168E+00
 -2.400  0.167E+00
 -2.390  0.166E+00
 -2.380  0.165E+00
 -2.370  0.164E+00
 -2.360  0.163E+00
 -2.350  0.162E+00
 -2.340  0.161E+00
 -2.330  0.161E+00
 -2.320  0.158E+00
 -2.310  0.156E+00
 -2.300  0.153E+00
 -2.290  0.151E+00
 -2.280  0.151E+00
 -2.270  0.151E+00
 -2.260  0.151E+00
 -2.250  0.151E+00
 -2.240  0.150E+00
 -2.230  0.148E+00
 -2.220  0.145E+00
 -2.210  0.145E+00
 -2.200  0.145E+00
 -2.190  0.146E+00
 -2.180  0.146E+00
 -2.170  0.145E+00
 -2.160  0.145E+00
 -2.150  0.140E+00
 -2.140  0.129E+00
 -2.130  0.120E+00
 -2.120  0.112E+00
 -2.110  0.105E+00
 -2.100  0.988E-01
 -2.090  0.926E-01
 -2.080  0.864E-01
 -2.070  0.806E-01
 -2.060  0.750E-01
 -2.050  0.696E-01
 -2.040  0.644E-01
 -2.030  0.594E-01
 -2.020  0.546E-01
 -2.010  0.500E-01
 -2.000  0.458E-01
 -1.990  0.416E-01
 -1.980  0.378E-01
 -1.970  0.340E-01
 -1.960  0.306E-01
 -1.950  0.272E-01
 -1.940  0.240E-01
 -1.930  0.210E-01
 -1.920  0.180E-01
 -1.910  0.157E-01
 -1.900  0.139E-01
 -1.890  0.125E-01
 -1.880  0.115E-01
 -1.870  0.108E-01
 -1.860  0.104E-01
 -1.850  0.104E-01
 -1.840  0.106E-01
 -1.830  0.112E-01
 -1.820  0.121E-01
 -1.810  0.133E-01
 -1.800  0.150E-01
 -1.790  0.170E-01
 -1.780  0.195E-01
 -1.770  0.226E-01
 -1.760  0.260E-01
 -1.750  0.294E-01
 -1.740  0.330E-01
 -1.730  0.366E-01
 -1.720  0.404E-01
 -1.710  0.444E-01
 -1.700  0.484E-01
 -1.690  0.524E-01
 -1.680  0.568E-01
 -1.670  0.610E-01
 -1.660  0.654E-01
 -1.650  0.698E-01
 -1.640  0.742E-01
 -1.630  0.786E-01
 -1.620  0.830E-01
 -1.610  0.874E-01
 -1.600  0.918E-01
 -1.590  0.964E-01
 -1.580  0.101E+00
 -1.570  0.105E+00
 -1.560  0.110E+00
 -1.550  0.114E+00
 -1.540  0.119E+00
 -1.530  0.124E+00
 -1.520  0.128E+00
 -1.510  0.132E+00
 -1.500  0.135E+00
 -1.490  0.138E+00
 -1.480  0.141E+00
 -1.470  0.144E+00
 -1.460  0.146E+00
 -1.450  0.150E+00
 -1.440  0.150E+00
 -1.430  0.152E+00
 -1.420  0.155E+00
 -1.410  0.158E+00
 -1.400  0.162E+00
 -1.390  0.166E+00
 -1.380  0.170E+00
 -1.370  0.174E+00
 -1.360  0.178E+00
 -1.350  0.182E+00
 -1.340  0.184E+00
 -1.330  0.186E+00
 -1.320  0.189E+00
 -1.310  0.191E+00
 -1.300  0.194E+00
 -1.290  0.196E+00
 -1.280  0.199E+00
 -1.270  0.202E+00
 -1.260  0.204E+00
 -1.250  0.208E+00
 -1.240  0.210E+00
 -1.230  0.212E+00
 -1.220  0.216E+00
 -1.210  0.220E+00
 -1.200  0.224E+00
 -1.190  0.226E+00
 -1.180  0.230E+00
 -1.170  0.234E+00
 -1.160  0.238E+00
 -1.150  0.242E+00
 -1.140  0.248E+00
 -1.130  0.254E+00
 -1.120  0.260E+00
 -1.110  0.266E+00
 -1.100  0.272E+00
 -1.090  0.278E+00
 -1.080  0.284E+00
 -1.070  0.288E+00
 -1.060  0.292E+00
 -1.050  0.298E+00
 -1.040  0.302E+00
 -1.030  0.308E+00
 -1.020  0.314E+00
 -1.010  0.320E+00
 -1.000  0.332E+00
 -0.990  0.352E+00
 -0.980  0.378E+00
 -0.970  0.440E+00
 -0.960  0.528E+00
 -0.950  0.576E+00
 -0.940  0.624E+00
 -0.930  0.660E+00
 -0.920  0.694E+00
 -0.910  0.740E+00
 -0.900  0.868E+00
 -0.890  0.938E+00
 -0.880  0.102E+01
 -0.870  0.114E+01
 -0.860  0.130E+01
 -0.850  0.128E+01
 -0.840  0.115E+01
 -0.830  0.103E+01
 -0.820  0.942E+00
 -0.810  0.872E+00
 -0.800  0.816E+00
 -0.790  0.772E+00
 -0.780  0.740E+00
 -0.770  0.712E+00
 -0.760  0.688E+00
 -0.750  0.668E+00
 -0.740  0.650E+00
 -0.730  0.632E+00
 -0.720  0.618E+00
 -0.710  0.602E+00
 -0.700  0.590E+00
 -0.690  0.576E+00
 -0.680  0.566E+00
 -0.670  0.554E+00
 -0.660  0.544E+00
 -0.650  0.534E+00
 -0.640  0.524E+00
 -0.630  0.516E+00
 -0.620  0.506E+00
 -0.610  0.498E+00
 -0.600  0.490E+00
 -0.590  0.482E+00
 -0.580  0.474E+00
 -0.570  0.468E+00
 -0.560  0.460E+00
 -0.550  0.454E+00
 -0.540  0.448E+00
 -0.530  0.444E+00
 -0.520  0.440E+00
 -0.510  0.434E+00
 -0.500  0.430E+00
 -0.490  0.426E+00
 -0.480  0.422E+00
 -0.470  0.418E+00
 -0.460  0.414E+00
 -0.450  0.410E+00
 -0.440  0.406E+00
 -0.430  0.402E+00
 -0.420  0.398E+00
 -0.410  0.394E+00
 -0.400  0.390E+00
 -0.390  0.388E+00
 -0.380  0.384E+00
 -0.370  0.380E+00
 -0.360  0.376E+00
 -0.350  0.374E+00
 -0.340  0.370E+00
 -0.330  0.368E+00
 -0.320  0.364E+00
 -0.310  0.360E+00
 -0.300  0.358E+00
 -0.290  0.354E+00
 -0.280  0.352E+00
 -0.270  0.348E+00
 -0.260  0.346E+00
 -0.250  0.342E+00
 -0.240  0.340E+00
 -0.230  0.336E+00
 -0.220  0.334E+00
 -0.210  0.332E+00
 -0.200  0.328E+00
 -0.190  0.326E+00
 -0.180  0.322E+00
 -0.170  0.318E+00
 -0.160  0.316E+00
 -0.150  0.314E+00
 -0.140  0.312E+00
 -0.130  0.310E+00
 -0.120  0.308E+00
 -0.110  0.306E+00
 -0.100  0.304E+00
 -0.090  0.302E+00
 -0.080  0.300E+00
 -0.070  0.298E+00
 -0.060  0.296E+00
 -0.050  0.296E+00
 -0.040  0.294E+00
 -0.030  0.292E+00
 -0.020  0.290E+00
 -0.010  0.288E+00
  0.000  0.286E+00
  0.010  0.286E+00
  0.020  0.284E+00
  0.030  0.282E+00
  0.040  0.280E+00
  0.050  0.278E+00
  0.060  0.276E+00
  0.070  0.276E+00
  0.080  0.274E+00
  0.090  0.272E+00
  0.100  0.270E+00
  0.110  0.268E+00
  0.120  0.268E+00
  0.130  0.266E+00
  0.140  0.264E+00
  0.150  0.262E+00
  0.160  0.260E+00
  0.170  0.260E+00
  0.180  0.258E+00
  0.190  0.256E+00
  0.200  0.254E+00
  0.210  0.252E+00
  0.220  0.250E+00
  0.230  0.248E+00
  0.240  0.246E+00
  0.250  0.246E+00
  0.260  0.244E+00
  0.270  0.242E+00
  0.280  0.240E+00
  0.290  0.238E+00
  0.300  0.236E+00
  0.310  0.234E+00
  0.320  0.234E+00
  0.330  0.232E+00
  0.340  0.230E+00
  0.350  0.230E+00
  0.360  0.228E+00
  0.370  0.228E+00
  0.380  0.226E+00
  0.390  0.226E+00
  0.400  0.224E+00
  0.410  0.224E+00
  0.420  0.222E+00
  0.430  0.222E+00
  0.440  0.220E+00
  0.450  0.220E+00
  0.460  0.218E+00
  0.470  0.218E+00
  0.480  0.216E+00
  0.490  0.216E+00
  0.500  0.216E+00
  0.510  0.214E+00
  0.520  0.214E+00
  0.530  0.212E+00
  0.540  0.212E+00
  0.550  0.210E+00
  0.560  0.210E+00
  0.570  0.208E+00
  0.580  0.208E+00
  0.590  0.206E+00
  0.600  0.206E+00
  0.610  0.204E+00
  0.620  0.202E+00
  0.630  0.202E+00
  0.640  0.200E+00
  0.650  0.200E+00
  0.660  0.198E+00
  0.670  0.197E+00
  0.680  0.196E+00
  0.690  0.195E+00
  0.700  0.194E+00
  0.710  0.193E+00
  0.720  0.192E+00
  0.730  0.191E+00
  0.740  0.189E+00
  0.750  0.188E+00
  0.760  0.187E+00
  0.770  0.186E+00
  0.780  0.185E+00
  0.790  0.183E+00
  0.800  0.181E+00
  0.810  0.180E+00
  0.820  0.179E+00
  0.830  0.178E+00
  0.840  0.177E+00
  0.850  0.176E+00
  0.860  0.175E+00
  0.870  0.175E+00
  0.880  0.174E+00
  0.890  0.173E+00
  0.900  0.173E+00
  0.910  0.172E+00
  0.920  0.172E+00
  0.930  0.171E+00
  0.940  0.170E+00
  0.950  0.170E+00
  0.960  0.169E+00
  0.970  0.168E+00
  0.980  0.168E+00
  0.990  0.167E+00
  1.000  0.166E+00
  1.010  0.166E+00
  1.020  0.165E+00
  1.030  0.164E+00
  1.040  0.164E+00
  1.050  0.163E+00
  1.060  0.162E+00
  1.070  0.161E+00
  1.080  0.161E+00
  1.090  0.160E+00
  1.100  0.159E+00
  1.110  0.159E+00
  1.120  0.158E+00
  1.130  0.157E+00
  1.140  0.157E+00
  1.150  0.156E+00
  1.160  0.155E+00
  1.170  0.154E+00
  1.180  0.154E+00
  1.190  0.153E+00
  1.200  0.152E+00
  1.210  0.151E+00
  1.220  0.151E+00
  1.230  0.150E+00
  1.240  0.149E+00
  1.250  0.148E+00
  1.260  0.148E+00
  1.270  0.147E+00
  1.280  0.146E+00
  1.290  0.145E+00
  1.300  0.143E+00
  1.310  0.142E+00
  1.320  0.142E+00
  1.330  0.141E+00
  1.340  0.140E+00
  1.350  0.139E+00
  1.360  0.138E+00
  1.370  0.137E+00
  1.380  0.136E+00
  1.390  0.135E+00
  1.400  0.134E+00
  1.410  0.133E+00
  1.420  0.133E+00
  1.430  0.132E+00
  1.440  0.132E+00
  1.450  0.131E+00
  1.460  0.131E+00
  1.470  0.130E+00
  1.480  0.130E+00
  1.490  0.129E+00
  1.500  0.129E+00
  1.510  0.129E+00
  1.520  0.128E+00
  1.530  0.128E+00
  1.540  0.127E+00
  1.550  0.127E+00
  1.560  0.135E+00
  1.570  0.156E+00
  1.580  0.191E+00
  1.590  0.240E+00
  1.600  0.302E+00
  1.610  0.378E+00
  1.620  0.478E+00
  1.630  0.524E+00
  1.640  0.524E+00
  1.650  0.534E+00
  1.660  0.548E+00
  1.670  0.570E+00
  1.680  0.598E+00
  1.690  0.628E+00
  1.700  0.660E+00
  1.710  0.694E+00
  1.720  0.728E+00
  1.730  0.762E+00
  1.740  0.800E+00
  1.750  0.838E+00
  1.760  0.876E+00
  1.770  0.920E+00
  1.780  0.970E+00
  1.790  0.102E+01
  1.800  0.108E+01
  1.810  0.115E+01
  1.820  0.122E+01
  1.830  0.124E+01
  1.840  0.124E+01
  1.850  0.124E+01
  1.860  0.124E+01
  1.870  0.123E+01
  1.880  0.123E+01
  1.890  0.121E+01
  1.900  0.120E+01
  1.910  0.120E+01
  1.920  0.119E+01
  1.930  0.119E+01
  1.940  0.117E+01
  1.950  0.115E+01
  1.960  0.112E+01
  1.970  0.109E+01
  1.980  0.108E+01
  1.990  0.107E+01
  2.000  0.107E+01
  2.010  0.106E+01
  2.020  0.105E+01
  2.030  0.104E+01
  2.040  0.104E+01
  2.050  0.103E+01
  2.060  0.103E+01
  2.070  0.102E+01
  2.080  0.101E+01
  2.090  0.101E+01
  2.100  0.100E+01
  2.110  0.100E+01
  2.120  0.996E+00
  2.130  0.992E+00
  2.140  0.988E+00
  2.150  0.984E+00
  2.160  0.982E+00
  2.170  0.980E+00
  2.180  0.992E+00
  2.190  0.100E+01
  2.200  0.990E+00
  2.210  0.976E+00
  2.220  0.964E+00
  2.230  0.956E+00
  2.240  0.948E+00
  2.250  0.942E+00
  2.260  0.936E+00
  2.270  0.932E+00
  2.280  0.928E+00
  2.290  0.928E+00
  2.300  0.928E+00
  2.310  0.930E+00
  2.320  0.932E+00
  2.330  0.934E+00
  2.340  0.938E+00
  2.350  0.940E+00
  2.360  0.942E+00
  2.370  0.946E+00
  2.380  0.948E+00
  2.390  0.950E+00
  2.400  0.954E+00
  2.410  0.958E+00
  2.420  0.960E+00
  2.430  0.964E+00
  2.440  0.966E+00
  2.450  0.970E+00
  2.460  0.972E+00
  2.470  0.974E+00
  2.480  0.984E+00
  2.490  0.996E+00
  2.500  0.100E+01
  2.510  0.998E+00
  2.520  0.994E+00
  2.530  0.105E+01
  2.540  0.105E+01
  2.550  0.103E+01
  2.560  0.101E+01
  2.570  0.100E+01
  2.580  0.101E+01
  2.590  0.101E+01
  2.600  0.102E+01
  2.610  0.103E+01
  2.620  0.104E+01
  2.630  0.104E+01
  2.640  0.103E+01
  2.650  0.104E+01
  2.660  0.105E+01
  2.670  0.106E+01
  2.680  0.107E+01
  2.690  0.108E+01
  2.700  0.109E+01
  2.710  0.109E+01
  2.720  0.108E+01
  2.730  0.107E+01
  2.740  0.108E+01
  2.750  0.108E+01
  2.760  0.109E+01
  2.770  0.109E+01
  2.780  0.110E+01
  2.790  0.110E+01
  2.800  0.111E+01
  2.810  0.112E+01
  2.820  0.112E+01
  2.830  0.113E+01
  2.840  0.114E+01
  2.850  0.114E+01
  2.860  0.115E+01
  2.870  0.116E+01
  2.880  0.131E+01
  2.890  0.124E+01
  2.900  0.122E+01
  2.910  0.124E+01
  2.920  0.127E+01
  2.930  0.130E+01
  2.940  0.133E+01
  2.950  0.137E+01
  2.960  0.135E+01
  2.970  0.137E+01
  2.980  0.138E+01
  2.990  0.139E+01
  3.000  0.140E+01
  3.010  0.142E+01
  3.020  0.144E+01
  3.030  0.148E+01
  3.040  0.152E+01
  3.050  0.157E+01
  3.060  0.151E+01
  3.070  0.151E+01
  3.080  0.151E+01
  3.090  0.151E+01
  3.100  0.150E+01
  3.110  0.150E+01
  3.120  0.149E+01
  3.130  0.149E+01
  3.140  0.149E+01
  3.150  0.152E+01
  3.160  0.151E+01
  3.170  0.150E+01
  3.180  0.149E+01
  3.190  0.148E+01
  3.200  0.146E+01
  3.210  0.146E+01
  3.220  0.146E+01
  3.230  0.145E+01
  3.240  0.145E+01
  3.250  0.145E+01
  3.260  0.145E+01
  3.270  0.145E+01
  3.280  0.145E+01
  3.290  0.145E+01
  3.300  0.144E+01
  3.310  0.144E+01
  3.320  0.143E+01
  3.330  0.143E+01
  3.340  0.143E+01
  3.350  0.143E+01
  3.360  0.143E+01
  3.370  0.142E+01
  3.380  0.142E+01
  3.390  0.142E+01
  3.400  0.141E+01
  3.410  0.141E+01
  3.420  0.141E+01
  3.430  0.140E+01
  3.440  0.140E+01
  3.450  0.139E+01
  3.460  0.139E+01
  3.470  0.138E+01
  3.480  0.138E+01
  3.490  0.137E+01
  3.500  0.137E+01
  3.510  0.137E+01
  3.520  0.136E+01
  3.530  0.136E+01
  3.540  0.137E+01
  3.550  0.137E+01
  3.560  0.137E+01
  3.570  0.137E+01
  3.580  0.138E+01
  3.590  0.138E+01
  3.600  0.137E+01
  3.610  0.137E+01
  3.620  0.137E+01
  3.630  0.137E+01
  3.640  0.136E+01
  3.650  0.136E+01
  3.660  0.136E+01
  3.670  0.136E+01
  3.680  0.135E+01
  3.690  0.135E+01
  3.700  0.134E+01
  3.710  0.134E+01
  3.720  0.133E+01
  3.730  0.133E+01
  3.740  0.133E+01
  3.750  0.132E+01
  3.760  0.132E+01
  3.770  0.132E+01
  3.780  0.131E+01
  3.790  0.131E+01
  3.800  0.131E+01
  3.810  0.131E+01
  3.820  0.130E+01
  3.830  0.130E+01
  3.840  0.130E+01
  3.850  0.130E+01
  3.860  0.130E+01
  3.870  0.130E+01
  3.880  0.130E+01
  3.890  0.129E+01
  3.900  0.129E+01
  3.910  0.129E+01
  3.920  0.129E+01
  3.930  0.129E+01
  3.940  0.128E+01
  3.950  0.128E+01
  3.960  0.128E+01
  3.970  0.127E+01
  3.980  0.127E+01
  3.990  0.126E+01
  4.000  0.126E+01
  4.010  0.126E+01
  4.020  0.126E+01
  4.030  0.125E+01
  4.040  0.125E+01
  4.050  0.125E+01
  4.060  0.125E+01
  4.070  0.125E+01
  4.080  0.125E+01
  4.090  0.125E+01
  4.100  0.125E+01
  4.110  0.124E+01
  4.120  0.124E+01
  4.130  0.124E+01
  4.140  0.124E+01
  4.150  0.124E+01
  4.160  0.124E+01
  4.170  0.124E+01
  4.180  0.124E+01
  4.190  0.124E+01
  4.200  0.123E+01
  4.210  0.123E+01
  4.220  0.123E+01
  4.230  0.123E+01
  4.240  0.122E+01
  4.250  0.122E+01
  4.260  0.122E+01
  4.270  0.121E+01
  4.280  0.121E+01
  4.290  0.121E+01
  4.300  0.121E+01
  4.310  0.121E+01
  4.320  0.121E+01
  4.330  0.121E+01
  4.340  0.121E+01
  4.350  0.121E+01
  4.360  0.121E+01
  4.370  0.121E+01
  4.380  0.120E+01
  4.390  0.120E+01
  4.400  0.120E+01
  4.410  0.121E+01
  4.420  0.121E+01
  4.430  0.120E+01
  4.440  0.120E+01
  4.450  0.120E+01
  4.460  0.119E+01
  4.470  0.119E+01
  4.480  0.119E+01
  4.490  0.118E+01
  4.500  0.118E+01
  4.510  0.118E+01
  4.520  0.118E+01
  4.530  0.118E+01
  4.540  0.119E+01
  4.550  0.118E+01
  4.560  0.117E+01
  4.570  0.115E+01
  4.580  0.113E+01
  4.590  0.110E+01
  4.600  0.104E+01
  4.610  0.986E+00
  4.620  0.954E+00
  4.630  0.934E+00
  4.640  0.914E+00
  4.650  0.892E+00
  4.660  0.870E+00
  4.670  0.846E+00
  4.680  0.822E+00
  4.690  0.800E+00
  4.700  0.788E+00
  4.710  0.776E+00
  4.720  0.762E+00
  4.730  0.748E+00
  4.740  0.734E+00
  4.750  0.722E+00
  4.760  0.708E+00
  4.770  0.696E+00
  4.780  0.682E+00
  4.790  0.670E+00
  4.800  0.658E+00
  4.810  0.648E+00
  4.820  0.638E+00
  4.830  0.628E+00
  4.840  0.620E+00
  4.850  0.612E+00
  4.860  0.604E+00
  4.870  0.594E+00
  4.880  0.588E+00
  4.890  0.582E+00
  4.900  0.574E+00
  4.910  0.566E+00
  4.920  0.556E+00
  4.930  0.548E+00
  4.940  0.538E+00
  4.950  0.530E+00
  4.960  0.520E+00
  4.970  0.512E+00
  4.980  0.506E+00
  4.990  0.498E+00
  5.000  0.490E+00
  5.010  0.484E+00
  5.020  0.478E+00
  5.030  0.472E+00
  5.040  0.466E+00
  5.050  0.460E+00
  5.060  0.454E+00
  5.070  0.448E+00
  5.080  0.440E+00
  5.090  0.434E+00
  5.100  0.426E+00
  5.110  0.420E+00
  5.120  0.414E+00
  5.130  0.406E+00
  5.140  0.400E+00
  5.150  0.394E+00
  5.160  0.388E+00
  5.170  0.380E+00
  5.180  0.374E+00
  5.190  0.368E+00
  5.200  0.362E+00
  5.210  0.356E+00
  5.220  0.350E+00
  5.230  0.344E+00
  5.240  0.338E+00
  5.250  0.332E+00
  5.260  0.326E+00
  5.270  0.320E+00
  5.280  0.314E+00
  5.290  0.308E+00
  5.300  0.304E+00
  5.310  0.298E+00
  5.320  0.292E+00
  5.330  0.288E+00
  5.340  0.284E+00
  5.350  0.280E+00
  5.360  0.284E+00
  5.370  0.280E+00
  5.380  0.276E+00
  5.390  0.270E+00
  5.400  0.264E+00
  5.410  0.258E+00
  5.420  0.250E+00
  5.430  0.242E+00
  5.440  0.236E+00
  5.450  0.228E+00
  5.460  0.222E+00
  5.470  0.216E+00
  5.480  0.210E+00
  5.490  0.204E+00
  5.500  0.198E+00
  5.510  0.192E+00
  5.520  0.187E+00
  5.530  0.182E+00
  5.540  0.177E+00
  5.550  0.171E+00
  5.560  0.164E+00
  5.570  0.156E+00
  5.580  0.147E+00
  5.590  0.137E+00
  5.600  0.127E+00
  5.610  0.118E+00
  5.620  0.110E+00
  5.630  0.103E+00
  5.640  0.964E-01
  5.650  0.908E-01
  5.660  0.858E-01
  5.670  0.814E-01
  5.680  0.778E-01
  5.690  0.748E-01
  5.700  0.532E-01
  5.710  0.246E-01
  5.720  0.157E-01
  5.730  0.890E-02
  5.740  0.402E-02
  5.750  0.106E-02
  5.760  0.314E-05
  5.770  0.000E+00
  5.780  0.000E+00
  5.790  0.000E+00
  5.800  0.000E+00
  5.810  0.000E+00
  5.820  0.000E+00
  5.830  0.000E+00
  5.840  0.000E+00
  5.850  0.000E+00
  5.860  0.000E+00
  5.870  0.000E+00
  5.880  0.000E+00
  5.890  0.000E+00
  5.900  0.000E+00
  5.910  0.000E+00
  5.920  0.000E+00
  5.930  0.000E+00
  5.940  0.000E+00
  5.950  0.000E+00
  5.960  0.000E+00
  5.970  0.000E+00
  5.980  0.000E+00
  5.990  0.000E+00
  6.000  0.000E+00
  6.010  0.000E+00
  6.020  0.000E+00
  6.030  0.000E+00
  6.040  0.000E+00
  6.050  0.000E+00
  6.060  0.000E+00
  6.070  0.000E+00
  6.080  0.000E+00
  6.090  0.000E+00
  6.100  0.000E+00
  6.110  0.000E+00
  6.120  0.000E+00
  6.130  0.000E+00
  6.140  0.000E+00
  6.150  0.000E+00
  6.160  0.000E+00
  6.170  0.000E+00
  6.180  0.000E+00
  6.190  0.000E+00
  6.200  0.000E+00
  6.210  0.000E+00
  6.220  0.000E+00
  6.230  0.000E+00
  6.240  0.000E+00
  6.250  0.000E+00
  6.260  0.000E+00
  6.270  0.000E+00
  6.280  0.000E+00
  6.290  0.000E+00
  6.300  0.000E+00
  6.310  0.000E+00
  6.320  0.000E+00
  6.330  0.000E+00
  6.340  0.000E+00
  6.350  0.000E+00
  6.360  0.000E+00
  6.370  0.000E+00
  6.380  0.000E+00
  6.390  0.000E+00
  6.400  0.000E+00
  6.410  0.000E+00
  6.420  0.000E+00
  6.430  0.183E-02
  6.440  0.594E-02
  6.450  0.104E-01
  6.460  0.152E-01
  6.470  0.204E-01
  6.480  0.260E-01
  6.490  0.320E-01
  6.500  0.382E-01
  6.510  0.448E-01
  6.520  0.518E-01
  6.530  0.592E-01
  6.540  0.672E-01
  6.550  0.756E-01
  6.560  0.836E-01
  6.570  0.894E-01
  6.580  0.948E-01
  6.590  0.100E+00
  6.600  0.105E+00
  6.610  0.110E+00
  6.620  0.114E+00
  6.630  0.119E+00
  6.640  0.124E+00
  6.650  0.129E+00
  6.660  0.133E+00
  6.670  0.138E+00
  6.680  0.143E+00
  6.690  0.147E+00
  6.700  0.152E+00
  6.710  0.157E+00
  6.720  0.162E+00
  6.730  0.167E+00
  6.740  0.173E+00
  6.750  0.178E+00
  6.760  0.184E+00
  6.770  0.190E+00
  6.780  0.196E+00
  6.790  0.200E+00
  6.800  0.206E+00
  6.810  0.210E+00
  6.820  0.216E+00
  6.830  0.222E+00
  6.840  0.226E+00
  6.850  0.230E+00
  6.860  0.234E+00
  6.870  0.238E+00
  6.880  0.240E+00
  6.890  0.242E+00
  6.900  0.244E+00
  6.910  0.246E+00
  6.920  0.250E+00
  6.930  0.252E+00
  6.940  0.256E+00
  6.950  0.258E+00
  6.960  0.262E+00
  6.970  0.266E+00
  6.980  0.268E+00
  6.990  0.272E+00
  7.000  0.276E+00
  7.010  0.280E+00
  7.020  0.282E+00
  7.030  0.286E+00
  7.040  0.290E+00
  7.050  0.294E+00
  7.060  0.296E+00
  7.070  0.300E+00
  7.080  0.304E+00
  7.090  0.306E+00
  7.100  0.310E+00
  7.110  0.314E+00
  7.120  0.316E+00
  7.130  0.320E+00
  7.140  0.324E+00
  7.150  0.328E+00
  7.160  0.332E+00
  7.170  0.336E+00
  7.180  0.340E+00
  7.190  0.344E+00
  7.200  0.348E+00
  7.210  0.352E+00
  7.220  0.358E+00
  7.230  0.362E+00
  7.240  0.368E+00
  7.250  0.372E+00
  7.260  0.378E+00
  7.270  0.384E+00
  7.280  0.388E+00
  7.290  0.394E+00
  7.300  0.400E+00
  7.310  0.406E+00
  7.320  0.412E+00
  7.330  0.418E+00
  7.340  0.424E+00
  7.350  0.430E+00
  7.360  0.436E+00
  7.370  0.442E+00
  7.380  0.448E+00
  7.390  0.456E+00
  7.400  0.462E+00
  7.410  0.468E+00
  7.420  0.476E+00
  7.430  0.482E+00
  7.440  0.486E+00
  7.450  0.492E+00
  7.460  0.498E+00
  7.470  0.502E+00
  7.480  0.508E+00
  7.490  0.516E+00
  7.500  0.522E+00
  7.510  0.530E+00
  7.520  0.538E+00
  7.530  0.544E+00
  7.540  0.552E+00
  7.550  0.558E+00
  7.560  0.564E+00
  7.570  0.570E+00
  7.580  0.576E+00
  7.590  0.584E+00
  7.600  0.590E+00
  7.610  0.596E+00
  7.620  0.602E+00
  7.630  0.608E+00
  7.640  0.614E+00
  7.650  0.620E+00
  7.660  0.626E+00
  7.670  0.634E+00
  7.680  0.640E+00
  7.690  0.648E+00
  7.700  0.656E+00
  7.710  0.664E+00
  7.720  0.672E+00
  7.730  0.680E+00
  7.740  0.688E+00
  7.750  0.696E+00
  7.760  0.706E+00
  7.770  0.714E+00
  7.780  0.726E+00
  7.790  0.738E+00
  7.800  0.752E+00
  7.810  0.768E+00
  7.820  0.784E+00
  7.830  0.804E+00
  7.840  0.826E+00
  7.850  0.850E+00
  7.860  0.880E+00
  7.870  0.902E+00
  7.880  0.916E+00
  7.890  0.926E+00
  7.900  0.938E+00
  7.910  0.950E+00
  7.920  0.960E+00
  7.930  0.970E+00
  7.940  0.978E+00
  7.950  0.984E+00
  7.960  0.992E+00
  7.970  0.100E+01
  7.980  0.101E+01
  7.990  0.101E+01
  8.000  0.102E+01
  8.010  0.103E+01
  8.020  0.104E+01
  8.030  0.104E+01
  8.040  0.105E+01
  8.050  0.105E+01
  8.060  0.106E+01
  8.070  0.105E+01
  8.080  0.104E+01
  8.090  0.102E+01
  8.100  0.100E+01
  8.110  0.984E+00
  8.120  0.966E+00
  8.130  0.952E+00
  8.140  0.942E+00
  8.150  0.936E+00
  8.160  0.936E+00
  8.170  0.940E+00
  8.180  0.964E+00
  8.190  0.984E+00
  8.200  0.988E+00
  8.210  0.980E+00
  8.220  0.970E+00
  8.230  0.960E+00
  8.240  0.948E+00
  8.250  0.934E+00
  8.260  0.922E+00
  8.270  0.906E+00
  8.280  0.896E+00
  8.290  0.886E+00
  8.300  0.878E+00
  8.310  0.864E+00
  8.320  0.832E+00
  8.330  0.818E+00
  8.340  0.804E+00
  8.350  0.788E+00
  8.360  0.776E+00
  8.370  0.766E+00
  8.380  0.758E+00
  8.390  0.752E+00
  8.400  0.750E+00
  8.410  0.756E+00
  8.420  0.768E+00
  8.430  0.780E+00
  8.440  0.790E+00
  8.450  0.798E+00
  8.460  0.804E+00
  8.470  0.806E+00
  8.480  0.806E+00
  8.490  0.808E+00
  8.500  0.810E+00
  8.510  0.814E+00
  8.520  0.818E+00
  8.530  0.806E+00
  8.540  0.792E+00
  8.550  0.780E+00
  8.560  0.764E+00
  8.570  0.736E+00
  8.580  0.704E+00
  8.590  0.690E+00
  8.600  0.780E+00
  8.610  0.780E+00
  8.620  0.712E+00
  8.630  0.662E+00
  8.640  0.638E+00
  8.650  0.628E+00
  8.660  0.618E+00
  8.670  0.610E+00
  8.680  0.604E+00
  8.690  0.596E+00
  8.700  0.590E+00
  8.710  0.586E+00
  8.720  0.580E+00
  8.730  0.576E+00
  8.740  0.574E+00
  8.750  0.574E+00
  8.760  0.578E+00
  8.770  0.584E+00
  8.780  0.590E+00
  8.790  0.596E+00
  8.800  0.556E+00
  8.810  0.570E+00
  8.820  0.586E+00
  8.830  0.598E+00
  8.840  0.606E+00
  8.850  0.608E+00
  8.860  0.606E+00
  8.870  0.606E+00
  8.880  0.610E+00
  8.890  0.614E+00
  8.900  0.622E+00
  8.910  0.632E+00
  8.920  0.640E+00
  8.930  0.650E+00
  8.940  0.660E+00
  8.950  0.668E+00
  8.960  0.674E+00
  8.970  0.684E+00
  8.980  0.698E+00
  8.990  0.720E+00
  9.000  0.792E+00
  9.010  0.904E+00
  9.020  0.105E+01
  9.030  0.123E+01
  9.040  0.144E+01
  9.050  0.171E+01
  9.060  0.199E+01
  9.070  0.208E+01
  9.080  0.206E+01
  9.090  0.199E+01
  9.100  0.193E+01
  9.110  0.187E+01
  9.120  0.177E+01
  9.130  0.164E+01
  9.140  0.156E+01
  9.150  0.151E+01
  9.160  0.148E+01
  9.170  0.147E+01
  9.180  0.145E+01
  9.190  0.144E+01
  9.200  0.142E+01
  9.210  0.138E+01
  9.220  0.133E+01
  9.230  0.130E+01
  9.240  0.128E+01
  9.250  0.126E+01
  9.260  0.125E+01
  9.270  0.125E+01
  9.280  0.126E+01
  9.290  0.127E+01
  9.300  0.128E+01
  9.310  0.129E+01
  9.320  0.130E+01
  9.330  0.132E+01
  9.340  0.133E+01
  9.350  0.136E+01
  9.360  0.140E+01
  9.370  0.145E+01
  9.380  0.149E+01
  9.390  0.142E+01
  9.400  0.129E+01
  9.410  0.122E+01
  9.420  0.120E+01
  9.430  0.118E+01
  9.440  0.116E+01
  9.450  0.115E+01
  9.460  0.113E+01
  9.470  0.112E+01
  9.480  0.111E+01
  9.490  0.109E+01
  9.500  0.108E+01
  9.510  0.107E+01
  9.520  0.106E+01
  9.530  0.105E+01
  9.540  0.105E+01
  9.550  0.104E+01
  9.560  0.103E+01
  9.570  0.103E+01
  9.580  0.102E+01
  9.590  0.101E+01
  9.600  0.100E+01
  9.610  0.996E+00
  9.620  0.976E+00
  9.630  0.962E+00
  9.640  0.954E+00
  9.650  0.954E+00
  9.660  0.942E+00
  9.670  0.926E+00
  9.680  0.912E+00
  9.690  0.894E+00
  9.700  0.872E+00
  9.710  0.856E+00
  9.720  0.848E+00
  9.730  0.838E+00
  9.740  0.830E+00
  9.750  0.822E+00
  9.760  0.812E+00
  9.770  0.802E+00
  9.780  0.796E+00
  9.790  0.788E+00
  9.800  0.782E+00
  9.810  0.776E+00
  9.820  0.770E+00
  9.830  0.766E+00
  9.840  0.760E+00
  9.850  0.758E+00
  9.860  0.756E+00
  9.870  0.756E+00
  9.880  0.758E+00
  9.890  0.762E+00
  9.900  0.766E+00
  9.910  0.768E+00
  9.920  0.764E+00
  9.930  0.752E+00
  9.940  0.740E+00
  9.950  0.730E+00
  9.960  0.722E+00
  9.970  0.716E+00
  9.980  0.710E+00
  9.990  0.706E+00
 10.000  0.700E+00
 10.010  0.696E+00
 10.020  0.692E+00
 10.030  0.688E+00
 10.040  0.684E+00
 10.050  0.682E+00
 10.060  0.680E+00
 10.070  0.680E+00
 10.080  0.684E+00
 10.090  0.696E+00
 10.100  0.710E+00
 10.110  0.726E+00
 10.120  0.744E+00
 10.130  0.758E+00
 10.140  0.770E+00
 10.150  0.778E+00
 10.160  0.784E+00
 10.170  0.790E+00
 10.180  0.792E+00
 10.190  0.796E+00
 10.200  0.798E+00
 10.210  0.804E+00
 10.220  0.814E+00
 10.230  0.818E+00
 10.240  0.824E+00
 10.250  0.830E+00
 10.260  0.838E+00
 10.270  0.850E+00
 10.280  0.866E+00
 10.290  0.888E+00
 10.300  0.906E+00
 10.310  0.918E+00
 10.320  0.926E+00
 10.330  0.928E+00
 10.340  0.924E+00
 10.350  0.912E+00
 10.360  0.888E+00
 10.370  0.866E+00
 10.380  0.856E+00
 10.390  0.840E+00
 10.400  0.816E+00
 10.410  0.782E+00
 10.420  0.744E+00
 10.430  0.710E+00
 10.440  0.690E+00
 10.450  0.676E+00
 10.460  0.666E+00
 10.470  0.658E+00
 10.480  0.654E+00
 10.490  0.652E+00
 10.500  0.656E+00
 10.510  0.662E+00
 10.520  0.674E+00
 10.530  0.680E+00
 10.540  0.676E+00
 10.550  0.672E+00
 10.560  0.670E+00
 10.570  0.670E+00
 10.580  0.672E+00
 10.590  0.672E+00
 10.600  0.672E+00
 10.610  0.670E+00
 10.620  0.670E+00
 10.630  0.668E+00
 10.640  0.666E+00
 10.650  0.664E+00
 10.660  0.662E+00
 10.670  0.662E+00
 10.680  0.662E+00
 10.690  0.662E+00
 10.700  0.666E+00
 10.710  0.670E+00
 10.720  0.676E+00
 10.730  0.686E+00
 10.740  0.696E+00
 10.750  0.710E+00
 10.760  0.718E+00
 10.770  0.720E+00
 10.780  0.724E+00
 10.790  0.726E+00
 10.800  0.726E+00
 10.810  0.722E+00
 10.820  0.718E+00
 10.830  0.714E+00
 10.840  0.720E+00
 10.850  0.732E+00
 10.860  0.754E+00
 10.870  0.784E+00
 10.880  0.782E+00
 10.890  0.768E+00
 10.900  0.752E+00
 10.910  0.738E+00
 10.920  0.726E+00
 10.930  0.718E+00
 10.940  0.712E+00
 10.950  0.708E+00
 10.960  0.706E+00
 10.970  0.708E+00
 10.980  0.708E+00
 10.990  0.708E+00
 11.000  0.704E+00
 11.010  0.698E+00
 11.020  0.688E+00
 11.030  0.678E+00
 11.040  0.682E+00
 11.050  0.670E+00
 11.060  0.662E+00
 11.070  0.656E+00
 11.080  0.648E+00
 11.090  0.642E+00
 11.100  0.636E+00
 11.110  0.630E+00
 11.120  0.622E+00
 11.130  0.614E+00
 11.140  0.608E+00
 11.150  0.604E+00
 11.160  0.628E+00
 11.170  0.630E+00
 11.180  0.634E+00
 11.190  0.638E+00
 11.200  0.640E+00
 11.210  0.640E+00
 11.220  0.640E+00
 11.230  0.640E+00
 11.240  0.636E+00
 11.250  0.634E+00
 11.260  0.624E+00
 11.270  0.620E+00
 11.280  0.616E+00
 11.290  0.610E+00
 11.300  0.606E+00
 11.310  0.600E+00
 11.320  0.596E+00
 11.330  0.590E+00
 11.340  0.584E+00
 11.350  0.580E+00
 11.360  0.576E+00
 11.370  0.572E+00
 11.380  0.570E+00
 11.390  0.566E+00
 11.400  0.564E+00
 11.410  0.560E+00
 11.420  0.558E+00
 11.430  0.556E+00
 11.440  0.552E+00
 11.450  0.550E+00
 11.460  0.546E+00
 11.470  0.546E+00
 11.480  0.544E+00
 11.490  0.544E+00
 11.500  0.544E+00
 11.510  0.542E+00
 11.520  0.542E+00
 11.530  0.542E+00
 11.540  0.542E+00
 11.550  0.542E+00
 11.560  0.542E+00
 11.570  0.542E+00
 11.580  0.544E+00
 11.590  0.546E+00
 11.600  0.550E+00
 11.610  0.554E+00
 11.620  0.560E+00
 11.630  0.568E+00
 11.640  0.576E+00
 11.650  0.586E+00
 11.660  0.596E+00
 11.670  0.602E+00
 11.680  0.604E+00
 11.690  0.606E+00
 11.700  0.604E+00
 11.710  0.602E+00
 11.720  0.596E+00
 11.730  0.614E+00
 11.740  0.598E+00
 11.750  0.562E+00
 11.760  0.532E+00
 11.770  0.512E+00
 11.780  0.506E+00
 11.790  0.506E+00
 11.800  0.504E+00
 11.810  0.502E+00
 11.820  0.500E+00
 11.830  0.502E+00
 11.840  0.512E+00
 11.850  0.530E+00
 11.860  0.550E+00
 11.870  0.542E+00
 11.880  0.534E+00
 11.890  0.528E+00
 11.900  0.508E+00
 11.910  0.492E+00
 11.920  0.482E+00
 11.930  0.476E+00
 11.940  0.476E+00
 11.950  0.478E+00
 11.960  0.478E+00
 11.970  0.480E+00
 11.980  0.482E+00
 11.990  0.486E+00
 12.000  0.490E+00
 12.010  0.494E+00
 12.020  0.500E+00
 12.030  0.506E+00
 12.040  0.510E+00
 12.050  0.512E+00
 12.060  0.510E+00
 12.070  0.514E+00
 12.080  0.520E+00
 12.090  0.524E+00
 12.100  0.530E+00
 12.110  0.532E+00
 12.120  0.532E+00
 12.130  0.530E+00
 12.140  0.528E+00
 12.150  0.524E+00
 12.160  0.520E+00
 12.170  0.514E+00
 12.180  0.508E+00
 12.190  0.500E+00
 12.200  0.494E+00
 12.210  0.490E+00
 12.220  0.486E+00
 12.230  0.484E+00
 12.240  0.484E+00
 12.250  0.482E+00
 12.260  0.482E+00
 12.270  0.480E+00
 12.280  0.480E+00
 12.290  0.478E+00
 12.300  0.478E+00
 12.310  0.478E+00
 12.320  0.476E+00
 12.330  0.476E+00
 12.340  0.474E+00
 12.350  0.474E+00
 12.360  0.472E+00
 12.370  0.470E+00
 12.380  0.470E+00
 12.390  0.470E+00
 12.400  0.470E+00
 12.410  0.470E+00
 12.420  0.470E+00
 12.430  0.472E+00
 12.440  0.474E+00
 12.450  0.476E+00
 12.460  0.476E+00
 12.470  0.472E+00
 12.480  0.468E+00
 12.490  0.464E+00
 12.500  0.460E+00
 12.510  0.456E+00
 12.520  0.452E+00
 12.530  0.448E+00
 12.540  0.444E+00
 12.550  0.438E+00
 12.560  0.434E+00
 12.570  0.430E+00
 12.580  0.426E+00
 12.590  0.422E+00
 12.600  0.418E+00
 12.610  0.414E+00
 12.620  0.410E+00
 12.630  0.408E+00
 12.640  0.404E+00
 12.650  0.400E+00
 12.660  0.396E+00
 12.670  0.394E+00
 12.680  0.392E+00
 12.690  0.390E+00
 12.700  0.386E+00
 12.710  0.384E+00
 12.720  0.382E+00
 12.730  0.380E+00
 12.740  0.378E+00
 12.750  0.376E+00
 12.760  0.374E+00
 12.770  0.372E+00
 12.780  0.368E+00
 12.790  0.358E+00
 12.800  0.354E+00
 12.810  0.352E+00
 12.820  0.350E+00
 12.830  0.346E+00
 12.840  0.344E+00
 12.850  0.342E+00
 12.860  0.340E+00
 12.870  0.338E+00
 12.880  0.336E+00
 12.890  0.334E+00
 12.900  0.334E+00
 12.910  0.332E+00
 12.920  0.330E+00
 12.930  0.330E+00
 12.940  0.328E+00
 12.950  0.328E+00
 12.960  0.326E+00
 12.970  0.326E+00
 12.980  0.326E+00
 12.990  0.326E+00
 13.000  0.326E+00
 13.010  0.326E+00
 13.020  0.326E+00
 13.030  0.328E+00
 13.040  0.330E+00
 13.050  0.334E+00
 13.060  0.340E+00
 13.070  0.346E+00
 13.080  0.348E+00
 13.090  0.348E+00
 13.100  0.348E+00
 13.110  0.344E+00
 13.120  0.338E+00
 13.130  0.332E+00
 13.140  0.324E+00
 13.150  0.314E+00
 13.160  0.308E+00
 13.170  0.302E+00
 13.180  0.298E+00
 13.190  0.296E+00
 13.200  0.294E+00
 13.210  0.290E+00
 13.220  0.288E+00
 13.230  0.284E+00
 13.240  0.280E+00
 13.250  0.278E+00
 13.260  0.274E+00
 13.270  0.272E+00
 13.280  0.270E+00
 13.290  0.266E+00
 13.300  0.264E+00
 13.310  0.262E+00
 13.320  0.260E+00
 13.330  0.258E+00
 13.340  0.256E+00
 13.350  0.254E+00
 13.360  0.252E+00
 13.370  0.252E+00
 13.380  0.250E+00
 13.390  0.248E+00
 13.400  0.248E+00
 13.410  0.246E+00
 13.420  0.244E+00
 13.430  0.244E+00
 13.440  0.246E+00
 13.450  0.252E+00
 13.460  0.258E+00
 13.470  0.266E+00
 13.480  0.272E+00
 13.490  0.278E+00
 13.500  0.280E+00
 13.510  0.278E+00
 13.520  0.272E+00
 13.530  0.264E+00
 13.540  0.256E+00
 13.550  0.252E+00
 13.560  0.244E+00
 13.570  0.238E+00
 13.580  0.234E+00
 13.590  0.230E+00
 13.600  0.226E+00
 13.610  0.224E+00
 13.620  0.222E+00
 13.630  0.218E+00
 13.640  0.216E+00
 13.650  0.212E+00
 13.660  0.208E+00
 13.670  0.206E+00
 13.680  0.202E+00
 13.690  0.198E+00
 13.700  0.193E+00
 13.710  0.189E+00
 13.720  0.185E+00
 13.730  0.181E+00
 13.740  0.177E+00
 13.750  0.174E+00
 13.760  0.171E+00
 13.770  0.168E+00
 13.780  0.166E+00
 13.790  0.165E+00
 13.800  0.163E+00
 13.810  0.163E+00
 13.820  0.162E+00
 13.830  0.161E+00
 13.840  0.161E+00
 13.850  0.160E+00
 13.860  0.159E+00
 13.870  0.159E+00
 13.880  0.158E+00
 13.890  0.158E+00
 13.900  0.157E+00
 13.910  0.156E+00
 13.920  0.155E+00
 13.930  0.155E+00
 13.940  0.155E+00
 13.950  0.154E+00
 13.960  0.154E+00
 13.970  0.153E+00
 13.980  0.151E+00
 13.990  0.149E+00
 14.000  0.146E+00
 14.010  0.143E+00
 14.020  0.139E+00
 14.030  0.135E+00
 14.040  0.131E+00
 14.050  0.129E+00
 14.060  0.127E+00
 14.070  0.126E+00
 14.080  0.124E+00
 14.090  0.126E+00
 14.100  0.127E+00
 14.110  0.129E+00
 14.120  0.130E+00
 14.130  0.131E+00
 14.140  0.130E+00
 14.150  0.128E+00
 14.160  0.126E+00
 14.170  0.125E+00
 14.180  0.123E+00
 14.190  0.121E+00
 14.200  0.120E+00
 14.210  0.118E+00
 14.220  0.116E+00
 14.230  0.115E+00
 14.240  0.113E+00
 14.250  0.112E+00
 14.260  0.110E+00
 14.270  0.109E+00
 14.280  0.107E+00
 14.290  0.106E+00
 14.300  0.104E+00
 14.310  0.103E+00
 14.320  0.102E+00
 14.330  0.100E+00
 14.340  0.988E-01
 14.350  0.974E-01
 14.360  0.960E-01
 14.370  0.948E-01
 14.380  0.934E-01
 14.390  0.922E-01
 14.400  0.910E-01
 14.410  0.898E-01
 14.420  0.886E-01
 14.430  0.874E-01
 14.440  0.862E-01
 14.450  0.850E-01
 14.460  0.840E-01
 14.470  0.828E-01
 14.480  0.818E-01
 14.490  0.808E-01
 14.500  0.798E-01
 14.510  0.788E-01
 14.520  0.778E-01
 14.530  0.768E-01
 14.540  0.758E-01
 14.550  0.750E-01
 14.560  0.740E-01
 14.570  0.732E-01
 14.580  0.722E-01
 14.590  0.714E-01
 14.600  0.708E-01
 14.610  0.700E-01
 14.620  0.692E-01
 14.630  0.686E-01
 14.640  0.680E-01
 14.650  0.674E-01
 14.660  0.668E-01
 14.670  0.664E-01
 14.680  0.660E-01
 14.690  0.654E-01
 14.700  0.650E-01
 14.710  0.648E-01
 14.720  0.644E-01
 14.730  0.642E-01
 14.740  0.638E-01
 14.750  0.638E-01
 14.760  0.636E-01
 14.770  0.632E-01
 14.780  0.630E-01
 14.790  0.628E-01
 14.800  0.626E-01
 14.810  0.628E-01
 14.820  0.632E-01
 14.830  0.636E-01
 14.840  0.640E-01
 14.850  0.644E-01
 14.860  0.648E-01
 14.870  0.650E-01
 14.880  0.652E-01
 14.890  0.654E-01
 14.900  0.654E-01
 14.910  0.652E-01
 14.920  0.652E-01
 14.930  0.650E-01
 14.940  0.646E-01
 14.950  0.642E-01
 14.960  0.638E-01
 14.970  0.634E-01
 14.980  0.630E-01
 14.990  0.626E-01
 15.000  0.624E-01
 15.010  0.622E-01
 15.020  0.612E-01
 15.030  0.596E-01
 15.040  0.570E-01
 15.050  0.530E-01
 15.060  0.484E-01
 15.070  0.432E-01
 15.080  0.372E-01
 15.090  0.316E-01
 15.100  0.302E-01
 15.110  0.288E-01
 15.120  0.276E-01
 15.130  0.262E-01
 15.140  0.250E-01
 15.150  0.236E-01
 15.160  0.224E-01
 15.170  0.212E-01
 15.180  0.200E-01
 15.190  0.189E-01
 15.200  0.177E-01
 15.210  0.166E-01
 15.220  0.156E-01
 15.230  0.145E-01
 15.240  0.135E-01
 15.250  0.126E-01
 15.260  0.116E-01
 15.270  0.107E-01
 15.280  0.982E-02
 15.290  0.898E-02
 15.300  0.818E-02
 15.310  0.740E-02
 15.320  0.666E-02
 15.330  0.596E-02
 15.340  0.528E-02
 15.350  0.466E-02
 15.360  0.406E-02
 15.370  0.352E-02
 15.380  0.300E-02
 15.390  0.252E-02
 15.400  0.208E-02
 15.410  0.168E-02
 15.420  0.133E-02
 15.430  0.101E-02
 15.440  0.738E-03
 15.450  0.506E-03
 15.460  0.318E-03
 15.470  0.173E-03
 15.480  0.710E-04
 15.490  0.136E-04
 15.500  0.000E+00
