# E (eV)  dos(E)    pdos(E)
  -5.910  0.000E+00  0.000E+00
  -5.900  0.519E-02  0.517E-02
  -5.890  0.208E-01  0.207E-01
  -5.880  0.467E-01  0.466E-01
  -5.870  0.768E-01  0.765E-01
  -5.860  0.673E-01  0.671E-01
  -5.850  0.746E-01  0.743E-01
  -5.840  0.827E-01  0.823E-01
  -5.830  0.911E-01  0.907E-01
  -5.820  0.999E-01  0.995E-01
  -5.810  0.109E+00  0.109E+00
  -5.800  0.118E+00  0.118E+00
  -5.790  0.125E+00  0.124E+00
  -5.780  0.129E+00  0.128E+00
  -5.770  0.131E+00  0.130E+00
  -5.760  0.133E+00  0.132E+00
  -5.750  0.137E+00  0.137E+00
  -5.740  0.142E+00  0.142E+00
  -5.730  0.147E+00  0.147E+00
  -5.720  0.152E+00  0.152E+00
  -5.710  0.158E+00  0.157E+00
  -5.700  0.163E+00  0.162E+00
  -5.690  0.168E+00  0.168E+00
  -5.680  0.174E+00  0.173E+00
  -5.670  0.179E+00  0.178E+00
  -5.660  0.182E+00  0.182E+00
  -5.650  0.184E+00  0.184E+00
  -5.640  0.188E+00  0.187E+00
  -5.630  0.191E+00  0.190E+00
  -5.620  0.194E+00  0.193E+00
  -5.610  0.197E+00  0.196E+00
  -5.600  0.200E+00  0.199E+00
  -5.590  0.203E+00  0.202E+00
  -5.580  0.206E+00  0.205E+00
  -5.570  0.210E+00  0.209E+00
  -5.560  0.213E+00  0.212E+00
  -5.550  0.217E+00  0.216E+00
  -5.540  0.221E+00  0.220E+00
  -5.530  0.225E+00  0.224E+00
  -5.520  0.229E+00  0.228E+00
  -5.510  0.233E+00  0.232E+00
  -5.500  0.237E+00  0.236E+00
  -5.490  0.240E+00  0.240E+00
  -5.480  0.244E+00  0.243E+00
  -5.470  0.246E+00  0.245E+00
  -5.460  0.247E+00  0.246E+00
  -5.450  0.249E+00  0.248E+00
  -5.440  0.252E+00  0.251E+00
  -5.430  0.255E+00  0.254E+00
  -5.420  0.257E+00  0.256E+00
  -5.410  0.260E+00  0.259E+00
  -5.400  0.263E+00  0.262E+00
  -5.390  0.266E+00  0.265E+00
  -5.380  0.268E+00  0.267E+00
  -5.370  0.271E+00  0.270E+00
  -5.360  0.274E+00  0.273E+00
  -5.350  0.277E+00  0.276E+00
  -5.340  0.280E+00  0.279E+00
  -5.330  0.283E+00  0.282E+00
  -5.320  0.286E+00  0.285E+00
  -5.310  0.289E+00  0.288E+00
  -5.300  0.292E+00  0.291E+00
  -5.290  0.295E+00  0.294E+00
  -5.280  0.298E+00  0.297E+00
  -5.270  0.302E+00  0.300E+00
  -5.260  0.305E+00  0.303E+00
  -5.250  0.307E+00  0.305E+00
  -5.240  0.309E+00  0.307E+00
  -5.230  0.311E+00  0.310E+00
  -5.220  0.313E+00  0.312E+00
  -5.210  0.315E+00  0.314E+00
  -5.200  0.318E+00  0.316E+00
  -5.190  0.320E+00  0.318E+00
  -5.180  0.322E+00  0.321E+00
  -5.170  0.324E+00  0.323E+00
  -5.160  0.327E+00  0.325E+00
  -5.150  0.329E+00  0.328E+00
  -5.140  0.332E+00  0.330E+00
  -5.130  0.334E+00  0.333E+00
  -5.120  0.337E+00  0.335E+00
  -5.110  0.339E+00  0.338E+00
  -5.100  0.342E+00  0.340E+00
  -5.090  0.344E+00  0.343E+00
  -5.080  0.347E+00  0.345E+00
  -5.070  0.349E+00  0.348E+00
  -5.060  0.352E+00  0.350E+00
  -5.050  0.355E+00  0.353E+00
  -5.040  0.357E+00  0.356E+00
  -5.030  0.360E+00  0.358E+00
  -5.020  0.363E+00  0.361E+00
  -5.010  0.366E+00  0.364E+00
  -5.000  0.368E+00  0.367E+00
  -4.990  0.371E+00  0.369E+00
  -4.980  0.373E+00  0.372E+00
  -4.970  0.376E+00  0.374E+00
  -4.960  0.377E+00  0.376E+00
  -4.950  0.379E+00  0.378E+00
  -4.940  0.382E+00  0.380E+00
  -4.930  0.384E+00  0.382E+00
  -4.920  0.386E+00  0.384E+00
  -4.910  0.388E+00  0.387E+00
  -4.900  0.391E+00  0.389E+00
  -4.890  0.393E+00  0.391E+00
  -4.880  0.395E+00  0.393E+00
  -4.870  0.397E+00  0.395E+00
  -4.860  0.399E+00  0.398E+00
  -4.850  0.402E+00  0.400E+00
  -4.840  0.404E+00  0.402E+00
  -4.830  0.406E+00  0.405E+00
  -4.820  0.409E+00  0.407E+00
  -4.810  0.411E+00  0.409E+00
  -4.800  0.414E+00  0.412E+00
  -4.790  0.416E+00  0.414E+00
  -4.780  0.419E+00  0.417E+00
  -4.770  0.421E+00  0.419E+00
  -4.760  0.424E+00  0.422E+00
  -4.750  0.426E+00  0.424E+00
  -4.740  0.429E+00  0.427E+00
  -4.730  0.431E+00  0.429E+00
  -4.720  0.434E+00  0.432E+00
  -4.710  0.436E+00  0.434E+00
  -4.700  0.439E+00  0.437E+00
  -4.690  0.442E+00  0.440E+00
  -4.680  0.444E+00  0.442E+00
  -4.670  0.447E+00  0.445E+00
  -4.660  0.449E+00  0.447E+00
  -4.650  0.451E+00  0.449E+00
  -4.640  0.453E+00  0.451E+00
  -4.630  0.456E+00  0.454E+00
  -4.620  0.458E+00  0.456E+00
  -4.610  0.460E+00  0.458E+00
  -4.600  0.462E+00  0.460E+00
  -4.590  0.465E+00  0.463E+00
  -4.580  0.467E+00  0.465E+00
  -4.570  0.469E+00  0.467E+00
  -4.560  0.472E+00  0.470E+00
  -4.550  0.474E+00  0.472E+00
  -4.540  0.477E+00  0.475E+00
  -4.530  0.479E+00  0.477E+00
  -4.520  0.482E+00  0.480E+00
  -4.510  0.484E+00  0.482E+00
  -4.500  0.487E+00  0.484E+00
  -4.490  0.489E+00  0.487E+00
  -4.480  0.492E+00  0.489E+00
  -4.470  0.494E+00  0.492E+00
  -4.460  0.497E+00  0.495E+00
  -4.450  0.500E+00  0.497E+00
  -4.440  0.502E+00  0.500E+00
  -4.430  0.505E+00  0.503E+00
  -4.420  0.508E+00  0.505E+00
  -4.410  0.510E+00  0.508E+00
  -4.400  0.513E+00  0.511E+00
  -4.390  0.516E+00  0.514E+00
  -4.380  0.519E+00  0.516E+00
  -4.370  0.522E+00  0.519E+00
  -4.360  0.524E+00  0.522E+00
  -4.350  0.527E+00  0.525E+00
  -4.340  0.530E+00  0.528E+00
  -4.330  0.533E+00  0.531E+00
  -4.320  0.536E+00  0.533E+00
  -4.310  0.539E+00  0.536E+00
  -4.300  0.541E+00  0.539E+00
  -4.290  0.544E+00  0.541E+00
  -4.280  0.547E+00  0.544E+00
  -4.270  0.550E+00  0.547E+00
  -4.260  0.552E+00  0.550E+00
  -4.250  0.555E+00  0.553E+00
  -4.240  0.558E+00  0.556E+00
  -4.230  0.561E+00  0.558E+00
  -4.220  0.564E+00  0.561E+00
  -4.210  0.567E+00  0.564E+00
  -4.200  0.570E+00  0.567E+00
  -4.190  0.573E+00  0.571E+00
  -4.180  0.576E+00  0.574E+00
  -4.170  0.580E+00  0.577E+00
  -4.160  0.583E+00  0.580E+00
  -4.150  0.586E+00  0.584E+00
  -4.140  0.590E+00  0.587E+00
  -4.130  0.593E+00  0.590E+00
  -4.120  0.596E+00  0.594E+00
  -4.110  0.600E+00  0.597E+00
  -4.100  0.603E+00  0.601E+00
  -4.090  0.607E+00  0.604E+00
  -4.080  0.610E+00  0.608E+00
  -4.070  0.614E+00  0.611E+00
  -4.060  0.618E+00  0.615E+00
  -4.050  0.622E+00  0.619E+00
  -4.040  0.626E+00  0.623E+00
  -4.030  0.630E+00  0.627E+00
  -4.020  0.634E+00  0.631E+00
  -4.010  0.638E+00  0.635E+00
  -4.000  0.642E+00  0.639E+00
  -3.990  0.647E+00  0.644E+00
  -3.980  0.651E+00  0.648E+00
  -3.970  0.655E+00  0.652E+00
  -3.960  0.660E+00  0.657E+00
  -3.950  0.664E+00  0.661E+00
  -3.940  0.669E+00  0.666E+00
  -3.930  0.674E+00  0.671E+00
  -3.920  0.678E+00  0.675E+00
  -3.910  0.683E+00  0.680E+00
  -3.900  0.688E+00  0.685E+00
  -3.890  0.694E+00  0.691E+00
  -3.880  0.700E+00  0.696E+00
  -3.870  0.706E+00  0.702E+00
  -3.860  0.712E+00  0.709E+00
  -3.850  0.718E+00  0.715E+00
  -3.840  0.725E+00  0.721E+00
  -3.830  0.732E+00  0.728E+00
  -3.820  0.739E+00  0.735E+00
  -3.810  0.746E+00  0.743E+00
  -3.800  0.755E+00  0.751E+00
  -3.790  0.763E+00  0.760E+00
  -3.780  0.773E+00  0.769E+00
  -3.770  0.783E+00  0.779E+00
  -3.760  0.793E+00  0.789E+00
  -3.750  0.804E+00  0.800E+00
  -3.740  0.815E+00  0.811E+00
  -3.730  0.827E+00  0.824E+00
  -3.720  0.845E+00  0.841E+00
  -3.710  0.874E+00  0.870E+00
  -3.700  0.916E+00  0.912E+00
  -3.690  0.973E+00  0.969E+00
  -3.680  0.101E+01  0.101E+01
  -3.670  0.933E+00  0.929E+00
  -3.660  0.925E+00  0.922E+00
  -3.650  0.925E+00  0.921E+00
  -3.640  0.925E+00  0.921E+00
  -3.630  0.925E+00  0.921E+00
  -3.620  0.926E+00  0.922E+00
  -3.610  0.925E+00  0.921E+00
  -3.600  0.919E+00  0.915E+00
  -3.590  0.906E+00  0.903E+00
  -3.580  0.889E+00  0.885E+00
  -3.570  0.880E+00  0.877E+00
  -3.560  0.885E+00  0.881E+00
  -3.550  0.891E+00  0.887E+00
  -3.540  0.897E+00  0.893E+00
  -3.530  0.904E+00  0.900E+00
  -3.520  0.908E+00  0.904E+00
  -3.510  0.907E+00  0.903E+00
  -3.500  0.901E+00  0.898E+00
  -3.490  0.894E+00  0.891E+00
  -3.480  0.886E+00  0.882E+00
  -3.470  0.875E+00  0.872E+00
  -3.460  0.865E+00  0.861E+00
  -3.450  0.861E+00  0.858E+00
  -3.440  0.858E+00  0.854E+00
  -3.430  0.854E+00  0.850E+00
  -3.420  0.850E+00  0.846E+00
  -3.410  0.846E+00  0.842E+00
  -3.400  0.843E+00  0.839E+00
  -3.390  0.840E+00  0.836E+00
  -3.380  0.838E+00  0.834E+00
  -3.370  0.836E+00  0.832E+00
  -3.360  0.833E+00  0.830E+00
  -3.350  0.831E+00  0.827E+00
  -3.340  0.827E+00  0.824E+00
  -3.330  0.824E+00  0.820E+00
  -3.320  0.820E+00  0.817E+00
  -3.310  0.816E+00  0.812E+00
  -3.300  0.811E+00  0.807E+00
  -3.290  0.805E+00  0.801E+00
  -3.280  0.797E+00  0.794E+00
  -3.270  0.789E+00  0.785E+00
  -3.260  0.785E+00  0.782E+00
  -3.250  0.783E+00  0.780E+00
  -3.240  0.781E+00  0.777E+00
  -3.230  0.778E+00  0.775E+00
  -3.220  0.775E+00  0.772E+00
  -3.210  0.772E+00  0.769E+00
  -3.200  0.770E+00  0.766E+00
  -3.190  0.767E+00  0.764E+00
  -3.180  0.765E+00  0.762E+00
  -3.170  0.763E+00  0.760E+00
  -3.160  0.761E+00  0.758E+00
  -3.150  0.760E+00  0.756E+00
  -3.140  0.757E+00  0.754E+00
  -3.130  0.754E+00  0.751E+00
  -3.120  0.751E+00  0.748E+00
  -3.110  0.747E+00  0.743E+00
  -3.100  0.742E+00  0.739E+00
  -3.090  0.737E+00  0.734E+00
  -3.080  0.731E+00  0.728E+00
  -3.070  0.725E+00  0.722E+00
  -3.060  0.719E+00  0.715E+00
  -3.050  0.713E+00  0.710E+00
  -3.040  0.709E+00  0.705E+00
  -3.030  0.705E+00  0.701E+00
  -3.020  0.701E+00  0.698E+00
  -3.010  0.697E+00  0.694E+00
  -3.000  0.694E+00  0.691E+00
  -2.990  0.691E+00  0.687E+00
  -2.980  0.688E+00  0.685E+00
  -2.970  0.685E+00  0.682E+00
  -2.960  0.682E+00  0.679E+00
  -2.950  0.679E+00  0.676E+00
  -2.940  0.676E+00  0.673E+00
  -2.930  0.673E+00  0.670E+00
  -2.920  0.669E+00  0.666E+00
  -2.910  0.665E+00  0.662E+00
  -2.900  0.662E+00  0.659E+00
  -2.890  0.658E+00  0.655E+00
  -2.880  0.655E+00  0.652E+00
  -2.870  0.651E+00  0.648E+00
  -2.860  0.648E+00  0.645E+00
  -2.850  0.645E+00  0.642E+00
  -2.840  0.641E+00  0.638E+00
  -2.830  0.637E+00  0.634E+00
  -2.820  0.634E+00  0.631E+00
  -2.810  0.630E+00  0.627E+00
  -2.800  0.625E+00  0.622E+00
  -2.790  0.620E+00  0.617E+00
  -2.780  0.614E+00  0.611E+00
  -2.770  0.608E+00  0.605E+00
  -2.760  0.604E+00  0.601E+00
  -2.750  0.600E+00  0.597E+00
  -2.740  0.596E+00  0.593E+00
  -2.730  0.592E+00  0.590E+00
  -2.720  0.589E+00  0.586E+00
  -2.710  0.585E+00  0.582E+00
  -2.700  0.581E+00  0.579E+00
  -2.690  0.578E+00  0.575E+00
  -2.680  0.574E+00  0.572E+00
  -2.670  0.571E+00  0.568E+00
  -2.660  0.568E+00  0.565E+00
  -2.650  0.565E+00  0.562E+00
  -2.640  0.561E+00  0.559E+00
  -2.630  0.558E+00  0.555E+00
  -2.620  0.554E+00  0.551E+00
  -2.610  0.550E+00  0.548E+00
  -2.600  0.546E+00  0.544E+00
  -2.590  0.542E+00  0.540E+00
  -2.580  0.538E+00  0.536E+00
  -2.570  0.534E+00  0.532E+00
  -2.560  0.530E+00  0.528E+00
  -2.550  0.526E+00  0.523E+00
  -2.540  0.522E+00  0.519E+00
  -2.530  0.518E+00  0.515E+00
  -2.520  0.513E+00  0.511E+00
  -2.510  0.508E+00  0.506E+00
  -2.500  0.504E+00  0.501E+00
  -2.490  0.499E+00  0.496E+00
  -2.480  0.494E+00  0.491E+00
  -2.470  0.489E+00  0.487E+00
  -2.460  0.485E+00  0.483E+00
  -2.450  0.481E+00  0.479E+00
  -2.440  0.477E+00  0.475E+00
  -2.430  0.473E+00  0.471E+00
  -2.420  0.468E+00  0.465E+00
  -2.410  0.464E+00  0.462E+00
  -2.400  0.461E+00  0.459E+00
  -2.390  0.458E+00  0.455E+00
  -2.380  0.455E+00  0.452E+00
  -2.370  0.452E+00  0.449E+00
  -2.360  0.449E+00  0.446E+00
  -2.350  0.446E+00  0.444E+00
  -2.340  0.443E+00  0.441E+00
  -2.330  0.440E+00  0.438E+00
  -2.320  0.432E+00  0.430E+00
  -2.310  0.424E+00  0.422E+00
  -2.300  0.417E+00  0.415E+00
  -2.290  0.410E+00  0.408E+00
  -2.280  0.408E+00  0.406E+00
  -2.270  0.409E+00  0.407E+00
  -2.260  0.408E+00  0.406E+00
  -2.250  0.406E+00  0.404E+00
  -2.240  0.402E+00  0.400E+00
  -2.230  0.396E+00  0.394E+00
  -2.220  0.389E+00  0.387E+00
  -2.210  0.386E+00  0.384E+00
  -2.200  0.387E+00  0.385E+00
  -2.190  0.387E+00  0.385E+00
  -2.180  0.387E+00  0.385E+00
  -2.170  0.386E+00  0.384E+00
  -2.160  0.384E+00  0.382E+00
  -2.150  0.371E+00  0.369E+00
  -2.140  0.342E+00  0.340E+00
  -2.130  0.316E+00  0.314E+00
  -2.120  0.294E+00  0.293E+00
  -2.110  0.276E+00  0.274E+00
  -2.100  0.258E+00  0.257E+00
  -2.090  0.241E+00  0.240E+00
  -2.080  0.225E+00  0.224E+00
  -2.070  0.210E+00  0.208E+00
  -2.060  0.195E+00  0.194E+00
  -2.050  0.180E+00  0.179E+00
  -2.040  0.167E+00  0.166E+00
  -2.030  0.154E+00  0.153E+00
  -2.020  0.141E+00  0.140E+00
  -2.010  0.129E+00  0.129E+00
  -2.000  0.118E+00  0.117E+00
  -1.990  0.107E+00  0.107E+00
  -1.980  0.972E-01  0.967E-01
  -1.970  0.877E-01  0.872E-01
  -1.960  0.786E-01  0.782E-01
  -1.950  0.700E-01  0.696E-01
  -1.940  0.618E-01  0.614E-01
  -1.930  0.540E-01  0.537E-01
  -1.920  0.467E-01  0.464E-01
  -1.910  0.406E-01  0.403E-01
  -1.900  0.360E-01  0.358E-01
  -1.890  0.323E-01  0.322E-01
  -1.880  0.295E-01  0.294E-01
  -1.870  0.275E-01  0.274E-01
  -1.860  0.264E-01  0.262E-01
  -1.850  0.260E-01  0.259E-01
  -1.840  0.264E-01  0.263E-01
  -1.830  0.277E-01  0.275E-01
  -1.820  0.296E-01  0.295E-01
  -1.810  0.325E-01  0.322E-01
  -1.800  0.363E-01  0.361E-01
  -1.790  0.412E-01  0.409E-01
  -1.780  0.471E-01  0.468E-01
  -1.770  0.550E-01  0.546E-01
  -1.760  0.630E-01  0.626E-01
  -1.750  0.714E-01  0.709E-01
  -1.740  0.800E-01  0.795E-01
  -1.730  0.888E-01  0.883E-01
  -1.720  0.979E-01  0.973E-01
  -1.710  0.107E+00  0.107E+00
  -1.700  0.117E+00  0.116E+00
  -1.690  0.127E+00  0.126E+00
  -1.680  0.137E+00  0.136E+00
  -1.670  0.147E+00  0.146E+00
  -1.660  0.158E+00  0.157E+00
  -1.650  0.168E+00  0.167E+00
  -1.640  0.178E+00  0.177E+00
  -1.630  0.189E+00  0.188E+00
  -1.620  0.199E+00  0.198E+00
  -1.610  0.210E+00  0.208E+00
  -1.600  0.220E+00  0.219E+00
  -1.590  0.231E+00  0.229E+00
  -1.580  0.241E+00  0.240E+00
  -1.570  0.252E+00  0.250E+00
  -1.560  0.262E+00  0.261E+00
  -1.550  0.273E+00  0.271E+00
  -1.540  0.283E+00  0.282E+00
  -1.530  0.294E+00  0.292E+00
  -1.520  0.304E+00  0.302E+00
  -1.510  0.313E+00  0.311E+00
  -1.500  0.321E+00  0.319E+00
  -1.490  0.327E+00  0.325E+00
  -1.480  0.333E+00  0.331E+00
  -1.470  0.340E+00  0.338E+00
  -1.460  0.345E+00  0.343E+00
  -1.450  0.352E+00  0.350E+00
  -1.440  0.353E+00  0.351E+00
  -1.430  0.358E+00  0.356E+00
  -1.420  0.364E+00  0.362E+00
  -1.410  0.371E+00  0.369E+00
  -1.400  0.378E+00  0.376E+00
  -1.390  0.386E+00  0.384E+00
  -1.380  0.395E+00  0.392E+00
  -1.370  0.404E+00  0.401E+00
  -1.360  0.413E+00  0.410E+00
  -1.350  0.421E+00  0.418E+00
  -1.340  0.425E+00  0.423E+00
  -1.330  0.430E+00  0.427E+00
  -1.320  0.434E+00  0.431E+00
  -1.310  0.439E+00  0.436E+00
  -1.300  0.444E+00  0.441E+00
  -1.290  0.449E+00  0.446E+00
  -1.280  0.454E+00  0.451E+00
  -1.270  0.459E+00  0.456E+00
  -1.260  0.465E+00  0.462E+00
  -1.250  0.470E+00  0.467E+00
  -1.240  0.476E+00  0.473E+00
  -1.230  0.482E+00  0.478E+00
  -1.220  0.489E+00  0.486E+00
  -1.210  0.496E+00  0.492E+00
  -1.200  0.501E+00  0.498E+00
  -1.190  0.508E+00  0.505E+00
  -1.180  0.515E+00  0.512E+00
  -1.170  0.523E+00  0.519E+00
  -1.160  0.530E+00  0.527E+00
  -1.150  0.539E+00  0.535E+00
  -1.140  0.550E+00  0.547E+00
  -1.130  0.562E+00  0.558E+00
  -1.120  0.573E+00  0.570E+00
  -1.110  0.584E+00  0.581E+00
  -1.100  0.595E+00  0.591E+00
  -1.090  0.606E+00  0.602E+00
  -1.080  0.616E+00  0.612E+00
  -1.070  0.625E+00  0.621E+00
  -1.060  0.633E+00  0.629E+00
  -1.050  0.641E+00  0.636E+00
  -1.040  0.649E+00  0.645E+00
  -1.030  0.658E+00  0.654E+00
  -1.020  0.668E+00  0.664E+00
  -1.010  0.680E+00  0.675E+00
  -1.000  0.699E+00  0.694E+00
  -0.990  0.728E+00  0.723E+00
  -0.980  0.767E+00  0.761E+00
  -0.970  0.855E+00  0.848E+00
  -0.960  0.981E+00  0.972E+00
  -0.950  0.106E+01  0.105E+01
  -0.940  0.113E+01  0.112E+01
  -0.930  0.119E+01  0.118E+01
  -0.920  0.125E+01  0.124E+01
  -0.910  0.131E+01  0.130E+01
  -0.900  0.152E+01  0.150E+01
  -0.890  0.162E+01  0.160E+01
  -0.880  0.174E+01  0.173E+01
  -0.870  0.194E+01  0.192E+01
  -0.860  0.220E+01  0.218E+01
  -0.850  0.216E+01  0.214E+01
  -0.840  0.195E+01  0.193E+01
  -0.830  0.177E+01  0.176E+01
  -0.820  0.163E+01  0.161E+01
  -0.810  0.151E+01  0.150E+01
  -0.800  0.142E+01  0.141E+01
  -0.790  0.135E+01  0.133E+01
  -0.780  0.129E+01  0.128E+01
  -0.770  0.125E+01  0.123E+01
  -0.760  0.121E+01  0.120E+01
  -0.750  0.117E+01  0.116E+01
  -0.740  0.114E+01  0.113E+01
  -0.730  0.111E+01  0.110E+01
  -0.720  0.109E+01  0.108E+01
  -0.710  0.106E+01  0.105E+01
  -0.700  0.104E+01  0.103E+01
  -0.690  0.102E+01  0.101E+01
  -0.680  0.100E+01  0.991E+00
  -0.670  0.981E+00  0.972E+00
  -0.660  0.963E+00  0.955E+00
  -0.650  0.946E+00  0.938E+00
  -0.640  0.930E+00  0.922E+00
  -0.630  0.914E+00  0.906E+00
  -0.620  0.899E+00  0.891E+00
  -0.610  0.884E+00  0.876E+00
  -0.600  0.870E+00  0.862E+00
  -0.590  0.856E+00  0.849E+00
  -0.580  0.844E+00  0.836E+00
  -0.570  0.831E+00  0.824E+00
  -0.560  0.818E+00  0.811E+00
  -0.550  0.808E+00  0.800E+00
  -0.540  0.799E+00  0.792E+00
  -0.530  0.790E+00  0.783E+00
  -0.520  0.782E+00  0.775E+00
  -0.510  0.774E+00  0.768E+00
  -0.500  0.767E+00  0.760E+00
  -0.490  0.759E+00  0.753E+00
  -0.480  0.752E+00  0.745E+00
  -0.470  0.745E+00  0.738E+00
  -0.460  0.737E+00  0.731E+00
  -0.450  0.730E+00  0.724E+00
  -0.440  0.723E+00  0.717E+00
  -0.430  0.717E+00  0.710E+00
  -0.420  0.710E+00  0.704E+00
  -0.410  0.703E+00  0.697E+00
  -0.400  0.697E+00  0.691E+00
  -0.390  0.691E+00  0.685E+00
  -0.380  0.684E+00  0.678E+00
  -0.370  0.678E+00  0.672E+00
  -0.360  0.672E+00  0.666E+00
  -0.350  0.666E+00  0.660E+00
  -0.340  0.660E+00  0.655E+00
  -0.330  0.654E+00  0.649E+00
  -0.320  0.649E+00  0.643E+00
  -0.310  0.643E+00  0.637E+00
  -0.300  0.637E+00  0.631E+00
  -0.290  0.631E+00  0.626E+00
  -0.280  0.626E+00  0.620E+00
  -0.270  0.620E+00  0.615E+00
  -0.260  0.615E+00  0.609E+00
  -0.250  0.609E+00  0.604E+00
  -0.240  0.604E+00  0.599E+00
  -0.230  0.599E+00  0.594E+00
  -0.220  0.594E+00  0.589E+00
  -0.210  0.589E+00  0.584E+00
  -0.200  0.584E+00  0.579E+00
  -0.190  0.579E+00  0.574E+00
  -0.180  0.571E+00  0.566E+00
  -0.170  0.566E+00  0.561E+00
  -0.160  0.561E+00  0.556E+00
  -0.150  0.557E+00  0.552E+00
  -0.140  0.553E+00  0.548E+00
  -0.130  0.549E+00  0.544E+00
  -0.120  0.546E+00  0.541E+00
  -0.110  0.543E+00  0.538E+00
  -0.100  0.539E+00  0.534E+00
  -0.090  0.536E+00  0.531E+00
  -0.080  0.533E+00  0.528E+00
  -0.070  0.530E+00  0.525E+00
  -0.060  0.527E+00  0.522E+00
  -0.050  0.523E+00  0.519E+00
  -0.040  0.520E+00  0.516E+00
  -0.030  0.517E+00  0.512E+00
  -0.020  0.514E+00  0.509E+00
  -0.010  0.511E+00  0.506E+00
   0.000  0.508E+00  0.503E+00
   0.010  0.504E+00  0.500E+00
   0.020  0.501E+00  0.497E+00
   0.030  0.498E+00  0.494E+00
   0.040  0.495E+00  0.491E+00
   0.050  0.492E+00  0.487E+00
   0.060  0.489E+00  0.484E+00
   0.070  0.486E+00  0.481E+00
   0.080  0.483E+00  0.479E+00
   0.090  0.480E+00  0.476E+00
   0.100  0.477E+00  0.473E+00
   0.110  0.474E+00  0.470E+00
   0.120  0.471E+00  0.467E+00
   0.130  0.468E+00  0.464E+00
   0.140  0.465E+00  0.461E+00
   0.150  0.462E+00  0.458E+00
   0.160  0.459E+00  0.455E+00
   0.170  0.456E+00  0.452E+00
   0.180  0.453E+00  0.449E+00
   0.190  0.450E+00  0.446E+00
   0.200  0.447E+00  0.443E+00
   0.210  0.443E+00  0.439E+00
   0.220  0.440E+00  0.436E+00
   0.230  0.436E+00  0.432E+00
   0.240  0.433E+00  0.429E+00
   0.250  0.430E+00  0.426E+00
   0.260  0.427E+00  0.423E+00
   0.270  0.424E+00  0.420E+00
   0.280  0.421E+00  0.417E+00
   0.290  0.417E+00  0.413E+00
   0.300  0.414E+00  0.410E+00
   0.310  0.410E+00  0.407E+00
   0.320  0.408E+00  0.404E+00
   0.330  0.405E+00  0.401E+00
   0.340  0.403E+00  0.399E+00
   0.350  0.401E+00  0.397E+00
   0.360  0.399E+00  0.395E+00
   0.370  0.397E+00  0.394E+00
   0.380  0.395E+00  0.392E+00
   0.390  0.394E+00  0.390E+00
   0.400  0.392E+00  0.388E+00
   0.410  0.390E+00  0.386E+00
   0.420  0.388E+00  0.384E+00
   0.430  0.386E+00  0.382E+00
   0.440  0.384E+00  0.381E+00
   0.450  0.382E+00  0.379E+00
   0.460  0.380E+00  0.377E+00
   0.470  0.379E+00  0.375E+00
   0.480  0.377E+00  0.373E+00
   0.490  0.375E+00  0.371E+00
   0.500  0.373E+00  0.369E+00
   0.510  0.371E+00  0.368E+00
   0.520  0.369E+00  0.366E+00
   0.530  0.367E+00  0.364E+00
   0.540  0.366E+00  0.362E+00
   0.550  0.364E+00  0.360E+00
   0.560  0.362E+00  0.358E+00
   0.570  0.360E+00  0.356E+00
   0.580  0.358E+00  0.355E+00
   0.590  0.356E+00  0.353E+00
   0.600  0.354E+00  0.351E+00
   0.610  0.352E+00  0.349E+00
   0.620  0.350E+00  0.347E+00
   0.630  0.348E+00  0.344E+00
   0.640  0.346E+00  0.342E+00
   0.650  0.344E+00  0.340E+00
   0.660  0.341E+00  0.338E+00
   0.670  0.339E+00  0.336E+00
   0.680  0.337E+00  0.334E+00
   0.690  0.335E+00  0.332E+00
   0.700  0.333E+00  0.330E+00
   0.710  0.331E+00  0.328E+00
   0.720  0.329E+00  0.325E+00
   0.730  0.327E+00  0.323E+00
   0.740  0.325E+00  0.321E+00
   0.750  0.323E+00  0.319E+00
   0.760  0.321E+00  0.317E+00
   0.770  0.319E+00  0.315E+00
   0.780  0.317E+00  0.313E+00
   0.790  0.313E+00  0.310E+00
   0.800  0.310E+00  0.306E+00
   0.810  0.307E+00  0.304E+00
   0.820  0.305E+00  0.302E+00
   0.830  0.303E+00  0.300E+00
   0.840  0.302E+00  0.299E+00
   0.850  0.300E+00  0.297E+00
   0.860  0.299E+00  0.296E+00
   0.870  0.297E+00  0.294E+00
   0.880  0.296E+00  0.293E+00
   0.890  0.295E+00  0.292E+00
   0.900  0.294E+00  0.291E+00
   0.910  0.293E+00  0.290E+00
   0.920  0.291E+00  0.288E+00
   0.930  0.290E+00  0.287E+00
   0.940  0.289E+00  0.286E+00
   0.950  0.288E+00  0.285E+00
   0.960  0.286E+00  0.283E+00
   0.970  0.285E+00  0.282E+00
   0.980  0.284E+00  0.281E+00
   0.990  0.283E+00  0.280E+00
   1.000  0.281E+00  0.278E+00
   1.010  0.280E+00  0.277E+00
   1.020  0.279E+00  0.276E+00
   1.030  0.278E+00  0.275E+00
   1.040  0.276E+00  0.273E+00
   1.050  0.275E+00  0.272E+00
   1.060  0.273E+00  0.270E+00
   1.070  0.272E+00  0.269E+00
   1.080  0.271E+00  0.268E+00
   1.090  0.269E+00  0.266E+00
   1.100  0.268E+00  0.265E+00
   1.110  0.267E+00  0.264E+00
   1.120  0.265E+00  0.262E+00
   1.130  0.264E+00  0.261E+00
   1.140  0.263E+00  0.260E+00
   1.150  0.261E+00  0.259E+00
   1.160  0.260E+00  0.257E+00
   1.170  0.259E+00  0.256E+00
   1.180  0.257E+00  0.254E+00
   1.190  0.256E+00  0.253E+00
   1.200  0.255E+00  0.252E+00
   1.210  0.253E+00  0.250E+00
   1.220  0.252E+00  0.249E+00
   1.230  0.250E+00  0.248E+00
   1.240  0.249E+00  0.246E+00
   1.250  0.247E+00  0.245E+00
   1.260  0.246E+00  0.243E+00
   1.270  0.244E+00  0.242E+00
   1.280  0.243E+00  0.240E+00
   1.290  0.241E+00  0.238E+00
   1.300  0.238E+00  0.236E+00
   1.310  0.237E+00  0.234E+00
   1.320  0.235E+00  0.232E+00
   1.330  0.233E+00  0.231E+00
   1.340  0.232E+00  0.229E+00
   1.350  0.230E+00  0.228E+00
   1.360  0.229E+00  0.226E+00
   1.370  0.227E+00  0.224E+00
   1.380  0.225E+00  0.223E+00
   1.390  0.223E+00  0.221E+00
   1.400  0.222E+00  0.219E+00
   1.410  0.220E+00  0.218E+00
   1.420  0.219E+00  0.217E+00
   1.430  0.218E+00  0.216E+00
   1.440  0.217E+00  0.215E+00
   1.450  0.216E+00  0.214E+00
   1.460  0.215E+00  0.213E+00
   1.470  0.215E+00  0.212E+00
   1.480  0.214E+00  0.211E+00
   1.490  0.213E+00  0.210E+00
   1.500  0.212E+00  0.209E+00
   1.510  0.211E+00  0.209E+00
   1.520  0.210E+00  0.208E+00
   1.530  0.209E+00  0.207E+00
   1.540  0.208E+00  0.206E+00
   1.550  0.208E+00  0.205E+00
   1.560  0.215E+00  0.213E+00
   1.570  0.237E+00  0.234E+00
   1.580  0.272E+00  0.269E+00
   1.590  0.321E+00  0.318E+00
   1.600  0.384E+00  0.380E+00
   1.610  0.462E+00  0.458E+00
   1.620  0.563E+00  0.558E+00
   1.630  0.611E+00  0.606E+00
   1.640  0.612E+00  0.607E+00
   1.650  0.621E+00  0.615E+00
   1.660  0.637E+00  0.631E+00
   1.670  0.659E+00  0.653E+00
   1.680  0.687E+00  0.681E+00
   1.690  0.717E+00  0.711E+00
   1.700  0.751E+00  0.744E+00
   1.710  0.785E+00  0.778E+00
   1.720  0.820E+00  0.813E+00
   1.730  0.856E+00  0.849E+00
   1.740  0.893E+00  0.886E+00
   1.750  0.932E+00  0.925E+00
   1.760  0.973E+00  0.965E+00
   1.770  0.102E+01  0.101E+01
   1.780  0.107E+01  0.106E+01
   1.790  0.113E+01  0.112E+01
   1.800  0.119E+01  0.118E+01
   1.810  0.126E+01  0.125E+01
   1.820  0.133E+01  0.132E+01
   1.830  0.135E+01  0.134E+01
   1.840  0.135E+01  0.134E+01
   1.850  0.135E+01  0.134E+01
   1.860  0.135E+01  0.133E+01
   1.870  0.134E+01  0.133E+01
   1.880  0.134E+01  0.133E+01
   1.890  0.132E+01  0.131E+01
   1.900  0.131E+01  0.130E+01
   1.910  0.131E+01  0.130E+01
   1.920  0.131E+01  0.130E+01
   1.930  0.130E+01  0.129E+01
   1.940  0.129E+01  0.128E+01
   1.950  0.126E+01  0.125E+01
   1.960  0.123E+01  0.122E+01
   1.970  0.120E+01  0.119E+01
   1.980  0.119E+01  0.118E+01
   1.990  0.118E+01  0.117E+01
   2.000  0.117E+01  0.116E+01
   2.010  0.117E+01  0.116E+01
   2.020  0.116E+01  0.115E+01
   2.030  0.115E+01  0.114E+01
   2.040  0.115E+01  0.114E+01
   2.050  0.114E+01  0.113E+01
   2.060  0.114E+01  0.113E+01
   2.070  0.113E+01  0.112E+01
   2.080  0.113E+01  0.112E+01
   2.090  0.112E+01  0.111E+01
   2.100  0.112E+01  0.111E+01
   2.110  0.111E+01  0.110E+01
   2.120  0.111E+01  0.110E+01
   2.130  0.110E+01  0.109E+01
   2.140  0.110E+01  0.109E+01
   2.150  0.110E+01  0.109E+01
   2.160  0.109E+01  0.108E+01
   2.170  0.109E+01  0.108E+01
   2.180  0.110E+01  0.110E+01
   2.190  0.112E+01  0.111E+01
   2.200  0.110E+01  0.109E+01
   2.210  0.109E+01  0.108E+01
   2.220  0.108E+01  0.107E+01
   2.230  0.107E+01  0.106E+01
   2.240  0.106E+01  0.105E+01
   2.250  0.105E+01  0.104E+01
   2.260  0.105E+01  0.104E+01
   2.270  0.104E+01  0.103E+01
   2.280  0.104E+01  0.103E+01
   2.290  0.104E+01  0.103E+01
   2.300  0.104E+01  0.103E+01
   2.310  0.104E+01  0.103E+01
   2.320  0.104E+01  0.103E+01
   2.330  0.104E+01  0.104E+01
   2.340  0.105E+01  0.104E+01
   2.350  0.105E+01  0.104E+01
   2.360  0.105E+01  0.104E+01
   2.370  0.106E+01  0.105E+01
   2.380  0.106E+01  0.105E+01
   2.390  0.106E+01  0.105E+01
   2.400  0.106E+01  0.106E+01
   2.410  0.107E+01  0.106E+01
   2.420  0.107E+01  0.106E+01
   2.430  0.107E+01  0.107E+01
   2.440  0.108E+01  0.107E+01
   2.450  0.108E+01  0.107E+01
   2.460  0.108E+01  0.107E+01
   2.470  0.108E+01  0.107E+01
   2.480  0.109E+01  0.108E+01
   2.490  0.111E+01  0.110E+01
   2.500  0.111E+01  0.110E+01
   2.510  0.111E+01  0.110E+01
   2.520  0.110E+01  0.109E+01
   2.530  0.116E+01  0.115E+01
   2.540  0.116E+01  0.115E+01
   2.550  0.113E+01  0.112E+01
   2.560  0.112E+01  0.111E+01
   2.570  0.111E+01  0.110E+01
   2.580  0.111E+01  0.110E+01
   2.590  0.112E+01  0.111E+01
   2.600  0.113E+01  0.112E+01
   2.610  0.114E+01  0.113E+01
   2.620  0.115E+01  0.114E+01
   2.630  0.115E+01  0.114E+01
   2.640  0.114E+01  0.113E+01
   2.650  0.115E+01  0.114E+01
   2.660  0.116E+01  0.115E+01
   2.670  0.116E+01  0.115E+01
   2.680  0.117E+01  0.116E+01
   2.690  0.118E+01  0.117E+01
   2.700  0.120E+01  0.119E+01
   2.710  0.119E+01  0.118E+01
   2.720  0.118E+01  0.117E+01
   2.730  0.118E+01  0.117E+01
   2.740  0.118E+01  0.117E+01
   2.750  0.118E+01  0.117E+01
   2.760  0.119E+01  0.118E+01
   2.770  0.119E+01  0.118E+01
   2.780  0.120E+01  0.119E+01
   2.790  0.121E+01  0.120E+01
   2.800  0.121E+01  0.120E+01
   2.810  0.122E+01  0.121E+01
   2.820  0.123E+01  0.121E+01
   2.830  0.123E+01  0.122E+01
   2.840  0.124E+01  0.123E+01
   2.850  0.124E+01  0.123E+01
   2.860  0.125E+01  0.124E+01
   2.870  0.126E+01  0.125E+01
   2.880  0.141E+01  0.140E+01
   2.890  0.134E+01  0.133E+01
   2.900  0.133E+01  0.131E+01
   2.910  0.134E+01  0.133E+01
   2.920  0.137E+01  0.136E+01
   2.930  0.140E+01  0.139E+01
   2.940  0.143E+01  0.142E+01
   2.950  0.147E+01  0.146E+01
   2.960  0.145E+01  0.144E+01
   2.970  0.147E+01  0.145E+01
   2.980  0.148E+01  0.147E+01
   2.990  0.149E+01  0.148E+01
   3.000  0.150E+01  0.149E+01
   3.010  0.152E+01  0.151E+01
   3.020  0.154E+01  0.153E+01
   3.030  0.158E+01  0.156E+01
   3.040  0.162E+01  0.160E+01
   3.050  0.167E+01  0.166E+01
   3.060  0.161E+01  0.160E+01
   3.070  0.160E+01  0.159E+01
   3.080  0.161E+01  0.160E+01
   3.090  0.160E+01  0.159E+01
   3.100  0.160E+01  0.159E+01
   3.110  0.159E+01  0.158E+01
   3.120  0.159E+01  0.158E+01
   3.130  0.159E+01  0.157E+01
   3.140  0.158E+01  0.157E+01
   3.150  0.162E+01  0.160E+01
   3.160  0.160E+01  0.159E+01
   3.170  0.159E+01  0.158E+01
   3.180  0.158E+01  0.157E+01
   3.190  0.157E+01  0.156E+01
   3.200  0.156E+01  0.154E+01
   3.210  0.155E+01  0.154E+01
   3.220  0.155E+01  0.153E+01
   3.230  0.154E+01  0.153E+01
   3.240  0.154E+01  0.153E+01
   3.250  0.154E+01  0.153E+01
   3.260  0.154E+01  0.153E+01
   3.270  0.154E+01  0.152E+01
   3.280  0.154E+01  0.152E+01
   3.290  0.153E+01  0.152E+01
   3.300  0.153E+01  0.152E+01
   3.310  0.153E+01  0.151E+01
   3.320  0.152E+01  0.151E+01
   3.330  0.152E+01  0.150E+01
   3.340  0.152E+01  0.150E+01
   3.350  0.151E+01  0.150E+01
   3.360  0.151E+01  0.150E+01
   3.370  0.151E+01  0.149E+01
   3.380  0.150E+01  0.149E+01
   3.390  0.150E+01  0.149E+01
   3.400  0.150E+01  0.148E+01
   3.410  0.149E+01  0.148E+01
   3.420  0.149E+01  0.147E+01
   3.430  0.148E+01  0.147E+01
   3.440  0.148E+01  0.146E+01
   3.450  0.147E+01  0.146E+01
   3.460  0.147E+01  0.145E+01
   3.470  0.146E+01  0.145E+01
   3.480  0.146E+01  0.144E+01
   3.490  0.145E+01  0.144E+01
   3.500  0.145E+01  0.143E+01
   3.510  0.145E+01  0.143E+01
   3.520  0.144E+01  0.143E+01
   3.530  0.144E+01  0.143E+01
   3.540  0.145E+01  0.143E+01
   3.550  0.145E+01  0.143E+01
   3.560  0.145E+01  0.144E+01
   3.570  0.145E+01  0.144E+01
   3.580  0.145E+01  0.144E+01
   3.590  0.145E+01  0.144E+01
   3.600  0.145E+01  0.144E+01
   3.610  0.145E+01  0.143E+01
   3.620  0.145E+01  0.143E+01
   3.630  0.144E+01  0.143E+01
   3.640  0.144E+01  0.143E+01
   3.650  0.144E+01  0.142E+01
   3.660  0.143E+01  0.142E+01
   3.670  0.143E+01  0.141E+01
   3.680  0.143E+01  0.141E+01
   3.690  0.142E+01  0.141E+01
   3.700  0.142E+01  0.140E+01
   3.710  0.141E+01  0.140E+01
   3.720  0.141E+01  0.139E+01
   3.730  0.140E+01  0.139E+01
   3.740  0.140E+01  0.138E+01
   3.750  0.139E+01  0.138E+01
   3.760  0.139E+01  0.138E+01
   3.770  0.139E+01  0.137E+01
   3.780  0.138E+01  0.137E+01
   3.790  0.138E+01  0.137E+01
   3.800  0.138E+01  0.136E+01
   3.810  0.138E+01  0.136E+01
   3.820  0.137E+01  0.136E+01
   3.830  0.137E+01  0.136E+01
   3.840  0.137E+01  0.135E+01
   3.850  0.137E+01  0.135E+01
   3.860  0.136E+01  0.135E+01
   3.870  0.136E+01  0.135E+01
   3.880  0.136E+01  0.135E+01
   3.890  0.136E+01  0.134E+01
   3.900  0.136E+01  0.134E+01
   3.910  0.136E+01  0.134E+01
   3.920  0.135E+01  0.134E+01
   3.930  0.135E+01  0.134E+01
   3.940  0.135E+01  0.133E+01
   3.950  0.134E+01  0.133E+01
   3.960  0.134E+01  0.132E+01
   3.970  0.133E+01  0.132E+01
   3.980  0.133E+01  0.131E+01
   3.990  0.132E+01  0.131E+01
   4.000  0.132E+01  0.131E+01
   4.010  0.132E+01  0.130E+01
   4.020  0.131E+01  0.130E+01
   4.030  0.131E+01  0.130E+01
   4.040  0.131E+01  0.130E+01
   4.050  0.131E+01  0.129E+01
   4.060  0.131E+01  0.129E+01
   4.070  0.131E+01  0.129E+01
   4.080  0.131E+01  0.129E+01
   4.090  0.130E+01  0.129E+01
   4.100  0.130E+01  0.129E+01
   4.110  0.130E+01  0.128E+01
   4.120  0.130E+01  0.128E+01
   4.130  0.130E+01  0.128E+01
   4.140  0.129E+01  0.128E+01
   4.150  0.129E+01  0.128E+01
   4.160  0.129E+01  0.127E+01
   4.170  0.129E+01  0.127E+01
   4.180  0.129E+01  0.127E+01
   4.190  0.129E+01  0.127E+01
   4.200  0.129E+01  0.127E+01
   4.210  0.128E+01  0.127E+01
   4.220  0.128E+01  0.126E+01
   4.230  0.128E+01  0.126E+01
   4.240  0.127E+01  0.126E+01
   4.250  0.127E+01  0.125E+01
   4.260  0.127E+01  0.125E+01
   4.270  0.126E+01  0.124E+01
   4.280  0.126E+01  0.124E+01
   4.290  0.126E+01  0.124E+01
   4.300  0.126E+01  0.124E+01
   4.310  0.126E+01  0.125E+01
   4.320  0.126E+01  0.125E+01
   4.330  0.126E+01  0.124E+01
   4.340  0.126E+01  0.124E+01
   4.350  0.126E+01  0.124E+01
   4.360  0.126E+01  0.124E+01
   4.370  0.125E+01  0.124E+01
   4.380  0.125E+01  0.123E+01
   4.390  0.125E+01  0.123E+01
   4.400  0.125E+01  0.123E+01
   4.410  0.125E+01  0.123E+01
   4.420  0.125E+01  0.123E+01
   4.430  0.125E+01  0.123E+01
   4.440  0.124E+01  0.123E+01
   4.450  0.124E+01  0.122E+01
   4.460  0.123E+01  0.122E+01
   4.470  0.123E+01  0.121E+01
   4.480  0.123E+01  0.121E+01
   4.490  0.122E+01  0.121E+01
   4.500  0.122E+01  0.120E+01
   4.510  0.122E+01  0.120E+01
   4.520  0.122E+01  0.120E+01
   4.530  0.122E+01  0.121E+01
   4.540  0.123E+01  0.121E+01
   4.550  0.122E+01  0.120E+01
   4.560  0.121E+01  0.119E+01
   4.570  0.119E+01  0.117E+01
   4.580  0.116E+01  0.115E+01
   4.590  0.113E+01  0.112E+01
   4.600  0.108E+01  0.106E+01
   4.610  0.102E+01  0.101E+01
   4.620  0.988E+00  0.973E+00
   4.630  0.968E+00  0.953E+00
   4.640  0.947E+00  0.932E+00
   4.650  0.925E+00  0.911E+00
   4.660  0.902E+00  0.888E+00
   4.670  0.878E+00  0.865E+00
   4.680  0.854E+00  0.841E+00
   4.690  0.832E+00  0.819E+00
   4.700  0.819E+00  0.806E+00
   4.710  0.805E+00  0.793E+00
   4.720  0.792E+00  0.779E+00
   4.730  0.778E+00  0.766E+00
   4.740  0.764E+00  0.752E+00
   4.750  0.750E+00  0.738E+00
   4.760  0.737E+00  0.725E+00
   4.770  0.724E+00  0.712E+00
   4.780  0.711E+00  0.699E+00
   4.790  0.698E+00  0.686E+00
   4.800  0.686E+00  0.675E+00
   4.810  0.675E+00  0.663E+00
   4.820  0.664E+00  0.653E+00
   4.830  0.655E+00  0.644E+00
   4.840  0.646E+00  0.635E+00
   4.850  0.637E+00  0.626E+00
   4.860  0.628E+00  0.618E+00
   4.870  0.620E+00  0.609E+00
   4.880  0.613E+00  0.602E+00
   4.890  0.606E+00  0.595E+00
   4.900  0.599E+00  0.588E+00
   4.910  0.590E+00  0.579E+00
   4.920  0.580E+00  0.570E+00
   4.930  0.571E+00  0.560E+00
   4.940  0.561E+00  0.551E+00
   4.950  0.552E+00  0.542E+00
   4.960  0.543E+00  0.533E+00
   4.970  0.534E+00  0.524E+00
   4.980  0.526E+00  0.516E+00
   4.990  0.519E+00  0.509E+00
   5.000  0.511E+00  0.502E+00
   5.010  0.505E+00  0.495E+00
   5.020  0.498E+00  0.489E+00
   5.030  0.492E+00  0.482E+00
   5.040  0.486E+00  0.476E+00
   5.050  0.480E+00  0.470E+00
   5.060  0.473E+00  0.463E+00
   5.070  0.466E+00  0.456E+00
   5.080  0.459E+00  0.449E+00
   5.090  0.452E+00  0.442E+00
   5.100  0.445E+00  0.435E+00
   5.110  0.437E+00  0.428E+00
   5.120  0.430E+00  0.421E+00
   5.130  0.423E+00  0.414E+00
   5.140  0.417E+00  0.408E+00
   5.150  0.410E+00  0.401E+00
   5.160  0.404E+00  0.395E+00
   5.170  0.397E+00  0.388E+00
   5.180  0.390E+00  0.382E+00
   5.190  0.384E+00  0.375E+00
   5.200  0.377E+00  0.369E+00
   5.210  0.371E+00  0.362E+00
   5.220  0.364E+00  0.356E+00
   5.230  0.358E+00  0.350E+00
   5.240  0.352E+00  0.343E+00
   5.250  0.345E+00  0.337E+00
   5.260  0.339E+00  0.331E+00
   5.270  0.333E+00  0.325E+00
   5.280  0.327E+00  0.320E+00
   5.290  0.321E+00  0.314E+00
   5.300  0.316E+00  0.308E+00
   5.310  0.310E+00  0.302E+00
   5.320  0.304E+00  0.297E+00
   5.330  0.299E+00  0.292E+00
   5.340  0.295E+00  0.288E+00
   5.350  0.291E+00  0.283E+00
   5.360  0.296E+00  0.289E+00
   5.370  0.292E+00  0.284E+00
   5.380  0.287E+00  0.279E+00
   5.390  0.281E+00  0.273E+00
   5.400  0.275E+00  0.267E+00
   5.410  0.268E+00  0.261E+00
   5.420  0.260E+00  0.253E+00
   5.430  0.253E+00  0.246E+00
   5.440  0.246E+00  0.239E+00
   5.450  0.238E+00  0.232E+00
   5.460  0.232E+00  0.225E+00
   5.470  0.225E+00  0.219E+00
   5.480  0.219E+00  0.213E+00
   5.490  0.213E+00  0.206E+00
   5.500  0.206E+00  0.200E+00
   5.510  0.200E+00  0.195E+00
   5.520  0.195E+00  0.189E+00
   5.530  0.189E+00  0.184E+00
   5.540  0.184E+00  0.178E+00
   5.550  0.178E+00  0.172E+00
   5.560  0.170E+00  0.165E+00
   5.570  0.162E+00  0.157E+00
   5.580  0.153E+00  0.148E+00
   5.590  0.143E+00  0.138E+00
   5.600  0.132E+00  0.128E+00
   5.610  0.122E+00  0.118E+00
   5.620  0.114E+00  0.110E+00
   5.630  0.107E+00  0.103E+00
   5.640  0.100E+00  0.967E-01
   5.650  0.942E-01  0.910E-01
   5.660  0.889E-01  0.859E-01
   5.670  0.844E-01  0.815E-01
   5.680  0.806E-01  0.778E-01
   5.690  0.775E-01  0.748E-01
   5.700  0.551E-01  0.532E-01
   5.710  0.254E-01  0.245E-01
   5.720  0.163E-01  0.157E-01
   5.730  0.923E-02  0.890E-02
   5.740  0.418E-02  0.403E-02
   5.750  0.110E-02  0.106E-02
   5.760  0.326E-05  0.314E-05
   5.770  0.000E+00  0.000E+00
   5.780  0.000E+00  0.000E+00
   5.790  0.000E+00  0.000E+00
   5.800  0.000E+00  0.000E+00
   5.810  0.000E+00  0.000E+00
   5.820  0.000E+00  0.000E+00
   5.830  0.000E+00  0.000E+00
   5.840  0.000E+00  0.000E+00
   5.850  0.000E+00  0.000E+00
   5.860  0.000E+00  0.000E+00
   5.870  0.000E+00  0.000E+00
   5.880  0.000E+00  0.000E+00
   5.890  0.000E+00  0.000E+00
   5.900  0.000E+00  0.000E+00
   5.910  0.000E+00  0.000E+00
   5.920  0.000E+00  0.000E+00
   5.930  0.000E+00  0.000E+00
   5.940  0.000E+00  0.000E+00
   5.950  0.000E+00  0.000E+00
   5.960  0.000E+00  0.000E+00
   5.970  0.000E+00  0.000E+00
   5.980  0.000E+00  0.000E+00
   5.990  0.000E+00  0.000E+00
   6.000  0.000E+00  0.000E+00
   6.010  0.000E+00  0.000E+00
   6.020  0.000E+00  0.000E+00
   6.030  0.000E+00  0.000E+00
   6.040  0.000E+00  0.000E+00
   6.050  0.000E+00  0.000E+00
   6.060  0.000E+00  0.000E+00
   6.070  0.000E+00  0.000E+00
   6.080  0.000E+00  0.000E+00
   6.090  0.000E+00  0.000E+00
   6.100  0.000E+00  0.000E+00
   6.110  0.000E+00  0.000E+00
   6.120  0.000E+00  0.000E+00
   6.130  0.000E+00  0.000E+00
   6.140  0.000E+00  0.000E+00
   6.150  0.000E+00  0.000E+00
   6.160  0.000E+00  0.000E+00
   6.170  0.000E+00  0.000E+00
   6.180  0.000E+00  0.000E+00
   6.190  0.000E+00  0.000E+00
   6.200  0.000E+00  0.000E+00
   6.210  0.000E+00  0.000E+00
   6.220  0.000E+00  0.000E+00
   6.230  0.000E+00  0.000E+00
   6.240  0.000E+00  0.000E+00
   6.250  0.000E+00  0.000E+00
   6.260  0.000E+00  0.000E+00
   6.270  0.000E+00  0.000E+00
   6.280  0.000E+00  0.000E+00
   6.290  0.000E+00  0.000E+00
   6.300  0.000E+00  0.000E+00
   6.310  0.000E+00  0.000E+00
   6.320  0.000E+00  0.000E+00
   6.330  0.000E+00  0.000E+00
   6.340  0.000E+00  0.000E+00
   6.350  0.000E+00  0.000E+00
   6.360  0.000E+00  0.000E+00
   6.370  0.000E+00  0.000E+00
   6.380  0.000E+00  0.000E+00
   6.390  0.000E+00  0.000E+00
   6.400  0.000E+00  0.000E+00
   6.410  0.000E+00  0.000E+00
   6.420  0.000E+00  0.000E+00
   6.430  0.327E-02  0.292E-02
   6.440  0.106E-01  0.943E-02
   6.450  0.185E-01  0.165E-01
   6.460  0.271E-01  0.242E-01
   6.470  0.364E-01  0.324E-01
   6.480  0.463E-01  0.412E-01
   6.490  0.569E-01  0.505E-01
   6.500  0.682E-01  0.604E-01
   6.510  0.801E-01  0.709E-01
   6.520  0.927E-01  0.819E-01
   6.530  0.106E+00  0.934E-01
   6.540  0.120E+00  0.106E+00
   6.550  0.135E+00  0.119E+00
   6.560  0.150E+00  0.132E+00
   6.570  0.160E+00  0.140E+00
   6.580  0.169E+00  0.149E+00
   6.590  0.178E+00  0.156E+00
   6.600  0.187E+00  0.164E+00
   6.610  0.195E+00  0.171E+00
   6.620  0.203E+00  0.178E+00
   6.630  0.211E+00  0.185E+00
   6.640  0.220E+00  0.192E+00
   6.650  0.228E+00  0.200E+00
   6.660  0.236E+00  0.207E+00
   6.670  0.245E+00  0.214E+00
   6.680  0.253E+00  0.220E+00
   6.690  0.261E+00  0.227E+00
   6.700  0.269E+00  0.234E+00
   6.710  0.278E+00  0.242E+00
   6.720  0.287E+00  0.249E+00
   6.730  0.296E+00  0.257E+00
   6.740  0.306E+00  0.265E+00
   6.750  0.315E+00  0.274E+00
   6.760  0.325E+00  0.282E+00
   6.770  0.335E+00  0.290E+00
   6.780  0.345E+00  0.299E+00
   6.790  0.355E+00  0.307E+00
   6.800  0.363E+00  0.314E+00
   6.810  0.372E+00  0.321E+00
   6.820  0.381E+00  0.329E+00
   6.830  0.391E+00  0.336E+00
   6.840  0.399E+00  0.344E+00
   6.850  0.407E+00  0.350E+00
   6.860  0.413E+00  0.355E+00
   6.870  0.418E+00  0.359E+00
   6.880  0.421E+00  0.362E+00
   6.890  0.424E+00  0.364E+00
   6.900  0.426E+00  0.365E+00
   6.910  0.430E+00  0.369E+00
   6.920  0.435E+00  0.373E+00
   6.930  0.441E+00  0.378E+00
   6.940  0.446E+00  0.382E+00
   6.950  0.451E+00  0.386E+00
   6.960  0.456E+00  0.390E+00
   6.970  0.461E+00  0.395E+00
   6.980  0.467E+00  0.399E+00
   6.990  0.472E+00  0.404E+00
   7.000  0.477E+00  0.408E+00
   7.010  0.483E+00  0.413E+00
   7.020  0.488E+00  0.417E+00
   7.030  0.493E+00  0.422E+00
   7.040  0.499E+00  0.426E+00
   7.050  0.504E+00  0.431E+00
   7.060  0.510E+00  0.435E+00
   7.070  0.515E+00  0.440E+00
   7.080  0.521E+00  0.444E+00
   7.090  0.525E+00  0.448E+00
   7.100  0.530E+00  0.452E+00
   7.110  0.536E+00  0.456E+00
   7.120  0.541E+00  0.461E+00
   7.130  0.547E+00  0.465E+00
   7.140  0.553E+00  0.470E+00
   7.150  0.558E+00  0.475E+00
   7.160  0.565E+00  0.480E+00
   7.170  0.572E+00  0.486E+00
   7.180  0.580E+00  0.493E+00
   7.190  0.589E+00  0.500E+00
   7.200  0.597E+00  0.508E+00
   7.210  0.606E+00  0.515E+00
   7.220  0.616E+00  0.523E+00
   7.230  0.625E+00  0.532E+00
   7.240  0.636E+00  0.540E+00
   7.250  0.646E+00  0.549E+00
   7.260  0.656E+00  0.558E+00
   7.270  0.667E+00  0.567E+00
   7.280  0.678E+00  0.577E+00
   7.290  0.689E+00  0.586E+00
   7.300  0.700E+00  0.596E+00
   7.310  0.712E+00  0.606E+00
   7.320  0.724E+00  0.616E+00
   7.330  0.736E+00  0.627E+00
   7.340  0.748E+00  0.637E+00
   7.350  0.761E+00  0.648E+00
   7.360  0.773E+00  0.659E+00
   7.370  0.786E+00  0.670E+00
   7.380  0.799E+00  0.681E+00
   7.390  0.812E+00  0.693E+00
   7.400  0.826E+00  0.704E+00
   7.410  0.839E+00  0.716E+00
   7.420  0.853E+00  0.728E+00
   7.430  0.866E+00  0.739E+00
   7.440  0.870E+00  0.742E+00
   7.450  0.880E+00  0.750E+00
   7.460  0.890E+00  0.759E+00
   7.470  0.900E+00  0.767E+00
   7.480  0.910E+00  0.776E+00
   7.490  0.921E+00  0.786E+00
   7.500  0.934E+00  0.796E+00
   7.510  0.948E+00  0.808E+00
   7.520  0.962E+00  0.820E+00
   7.530  0.975E+00  0.831E+00
   7.540  0.987E+00  0.841E+00
   7.550  0.998E+00  0.850E+00
   7.560  0.101E+01  0.860E+00
   7.570  0.102E+01  0.870E+00
   7.580  0.103E+01  0.879E+00
   7.590  0.104E+01  0.889E+00
   7.600  0.105E+01  0.898E+00
   7.610  0.106E+01  0.908E+00
   7.620  0.108E+01  0.917E+00
   7.630  0.109E+01  0.926E+00
   7.640  0.110E+01  0.935E+00
   7.650  0.111E+01  0.944E+00
   7.660  0.112E+01  0.953E+00
   7.670  0.113E+01  0.964E+00
   7.680  0.114E+01  0.975E+00
   7.690  0.116E+01  0.985E+00
   7.700  0.117E+01  0.996E+00
   7.710  0.118E+01  0.101E+01
   7.720  0.119E+01  0.102E+01
   7.730  0.121E+01  0.103E+01
   7.740  0.122E+01  0.104E+01
   7.750  0.124E+01  0.106E+01
   7.760  0.125E+01  0.107E+01
   7.770  0.127E+01  0.108E+01
   7.780  0.129E+01  0.110E+01
   7.790  0.131E+01  0.112E+01
   7.800  0.133E+01  0.114E+01
   7.810  0.136E+01  0.116E+01
   7.820  0.139E+01  0.119E+01
   7.830  0.143E+01  0.122E+01
   7.840  0.147E+01  0.126E+01
   7.850  0.151E+01  0.130E+01
   7.860  0.157E+01  0.135E+01
   7.870  0.162E+01  0.138E+01
   7.880  0.164E+01  0.140E+01
   7.890  0.166E+01  0.142E+01
   7.900  0.168E+01  0.144E+01
   7.910  0.170E+01  0.146E+01
   7.920  0.171E+01  0.147E+01
   7.930  0.173E+01  0.148E+01
   7.940  0.174E+01  0.149E+01
   7.950  0.175E+01  0.150E+01
   7.960  0.176E+01  0.151E+01
   7.970  0.177E+01  0.152E+01
   7.980  0.177E+01  0.153E+01
   7.990  0.178E+01  0.153E+01
   8.000  0.179E+01  0.154E+01
   8.010  0.180E+01  0.155E+01
   8.020  0.181E+01  0.156E+01
   8.030  0.181E+01  0.156E+01
   8.040  0.181E+01  0.156E+01
   8.050  0.182E+01  0.157E+01
   8.060  0.182E+01  0.157E+01
   8.070  0.180E+01  0.155E+01
   8.080  0.177E+01  0.153E+01
   8.090  0.174E+01  0.150E+01
   8.100  0.171E+01  0.147E+01
   8.110  0.168E+01  0.144E+01
   8.120  0.165E+01  0.141E+01
   8.130  0.162E+01  0.139E+01
   8.140  0.160E+01  0.137E+01
   8.150  0.159E+01  0.136E+01
   8.160  0.158E+01  0.135E+01
   8.170  0.158E+01  0.135E+01
   8.180  0.161E+01  0.138E+01
   8.190  0.163E+01  0.140E+01
   8.200  0.163E+01  0.140E+01
   8.210  0.162E+01  0.139E+01
   8.220  0.160E+01  0.137E+01
   8.230  0.158E+01  0.135E+01
   8.240  0.156E+01  0.134E+01
   8.250  0.154E+01  0.132E+01
   8.260  0.152E+01  0.130E+01
   8.270  0.150E+01  0.128E+01
   8.280  0.148E+01  0.126E+01
   8.290  0.147E+01  0.125E+01
   8.300  0.145E+01  0.123E+01
   8.310  0.144E+01  0.122E+01
   8.320  0.140E+01  0.118E+01
   8.330  0.137E+01  0.116E+01
   8.340  0.136E+01  0.114E+01
   8.350  0.133E+01  0.112E+01
   8.360  0.132E+01  0.110E+01
   8.370  0.130E+01  0.108E+01
   8.380  0.129E+01  0.107E+01
   8.390  0.128E+01  0.106E+01
   8.400  0.127E+01  0.106E+01
   8.410  0.128E+01  0.106E+01
   8.420  0.129E+01  0.108E+01
   8.430  0.131E+01  0.109E+01
   8.440  0.133E+01  0.110E+01
   8.450  0.134E+01  0.111E+01
   8.460  0.134E+01  0.111E+01
   8.470  0.135E+01  0.112E+01
   8.480  0.134E+01  0.111E+01
   8.490  0.134E+01  0.111E+01
   8.500  0.134E+01  0.111E+01
   8.510  0.135E+01  0.112E+01
   8.520  0.136E+01  0.113E+01
   8.530  0.133E+01  0.111E+01
   8.540  0.131E+01  0.109E+01
   8.550  0.129E+01  0.107E+01
   8.560  0.126E+01  0.104E+01
   8.570  0.121E+01  0.994E+00
   8.580  0.115E+01  0.945E+00
   8.590  0.112E+01  0.922E+00
   8.600  0.122E+01  0.102E+01
   8.610  0.121E+01  0.101E+01
   8.620  0.113E+01  0.927E+00
   8.630  0.107E+01  0.869E+00
   8.640  0.103E+01  0.839E+00
   8.650  0.102E+01  0.823E+00
   8.660  0.100E+01  0.809E+00
   8.670  0.987E+00  0.797E+00
   8.680  0.975E+00  0.785E+00
   8.690  0.964E+00  0.775E+00
   8.700  0.954E+00  0.766E+00
   8.710  0.945E+00  0.758E+00
   8.720  0.937E+00  0.750E+00
   8.730  0.930E+00  0.744E+00
   8.740  0.924E+00  0.739E+00
   8.750  0.923E+00  0.737E+00
   8.760  0.926E+00  0.740E+00
   8.770  0.934E+00  0.747E+00
   8.780  0.946E+00  0.759E+00
   8.790  0.957E+00  0.769E+00
   8.800  0.899E+00  0.713E+00
   8.810  0.915E+00  0.728E+00
   8.820  0.933E+00  0.745E+00
   8.830  0.946E+00  0.758E+00
   8.840  0.954E+00  0.765E+00
   8.850  0.957E+00  0.768E+00
   8.860  0.955E+00  0.766E+00
   8.870  0.954E+00  0.765E+00
   8.880  0.956E+00  0.767E+00
   8.890  0.960E+00  0.772E+00
   8.900  0.968E+00  0.780E+00
   8.910  0.982E+00  0.791E+00
   8.920  0.994E+00  0.802E+00
   8.930  0.101E+01  0.811E+00
   8.940  0.102E+01  0.820E+00
   8.950  0.103E+01  0.829E+00
   8.960  0.104E+01  0.835E+00
   8.970  0.105E+01  0.845E+00
   8.980  0.107E+01  0.859E+00
   8.990  0.110E+01  0.880E+00
   9.000  0.120E+01  0.953E+00
   9.010  0.135E+01  0.107E+01
   9.020  0.154E+01  0.122E+01
   9.030  0.178E+01  0.141E+01
   9.040  0.207E+01  0.163E+01
   9.050  0.243E+01  0.191E+01
   9.060  0.280E+01  0.221E+01
   9.070  0.291E+01  0.231E+01
   9.080  0.290E+01  0.230E+01
   9.090  0.280E+01  0.222E+01
   9.100  0.272E+01  0.216E+01
   9.110  0.264E+01  0.209E+01
   9.120  0.251E+01  0.200E+01
   9.130  0.233E+01  0.185E+01
   9.140  0.222E+01  0.177E+01
   9.150  0.216E+01  0.172E+01
   9.160  0.213E+01  0.169E+01
   9.170  0.211E+01  0.168E+01
   9.180  0.209E+01  0.166E+01
   9.190  0.208E+01  0.165E+01
   9.200  0.206E+01  0.164E+01
   9.210  0.201E+01  0.160E+01
   9.220  0.196E+01  0.155E+01
   9.230  0.193E+01  0.153E+01
   9.240  0.191E+01  0.151E+01
   9.250  0.190E+01  0.150E+01
   9.260  0.190E+01  0.149E+01
   9.270  0.191E+01  0.151E+01
   9.280  0.194E+01  0.152E+01
   9.290  0.196E+01  0.154E+01
   9.300  0.199E+01  0.156E+01
   9.310  0.201E+01  0.158E+01
   9.320  0.204E+01  0.159E+01
   9.330  0.207E+01  0.162E+01
   9.340  0.212E+01  0.165E+01
   9.350  0.218E+01  0.170E+01
   9.360  0.225E+01  0.176E+01
   9.370  0.233E+01  0.183E+01
   9.380  0.242E+01  0.190E+01
   9.390  0.232E+01  0.181E+01
   9.400  0.208E+01  0.161E+01
   9.410  0.195E+01  0.150E+01
   9.420  0.192E+01  0.147E+01
   9.430  0.189E+01  0.145E+01
   9.440  0.185E+01  0.142E+01
   9.450  0.182E+01  0.139E+01
   9.460  0.179E+01  0.137E+01
   9.470  0.176E+01  0.135E+01
   9.480  0.174E+01  0.133E+01
   9.490  0.171E+01  0.131E+01
   9.500  0.170E+01  0.130E+01
   9.510  0.168E+01  0.128E+01
   9.520  0.165E+01  0.126E+01
   9.530  0.164E+01  0.125E+01
   9.540  0.162E+01  0.124E+01
   9.550  0.161E+01  0.123E+01
   9.560  0.160E+01  0.122E+01
   9.570  0.159E+01  0.121E+01
   9.580  0.158E+01  0.120E+01
   9.590  0.157E+01  0.119E+01
   9.600  0.156E+01  0.118E+01
   9.610  0.155E+01  0.117E+01
   9.620  0.152E+01  0.115E+01
   9.630  0.149E+01  0.113E+01
   9.640  0.149E+01  0.112E+01
   9.650  0.149E+01  0.112E+01
   9.660  0.147E+01  0.110E+01
   9.670  0.144E+01  0.108E+01
   9.680  0.142E+01  0.106E+01
   9.690  0.139E+01  0.104E+01
   9.700  0.135E+01  0.102E+01
   9.710  0.133E+01  0.100E+01
   9.720  0.132E+01  0.992E+00
   9.730  0.130E+01  0.981E+00
   9.740  0.129E+01  0.970E+00
   9.750  0.127E+01  0.959E+00
   9.760  0.126E+01  0.948E+00
   9.770  0.124E+01  0.937E+00
   9.780  0.123E+01  0.927E+00
   9.790  0.122E+01  0.919E+00
   9.800  0.121E+01  0.911E+00
   9.810  0.120E+01  0.904E+00
   9.820  0.119E+01  0.897E+00
   9.830  0.119E+01  0.891E+00
   9.840  0.118E+01  0.885E+00
   9.850  0.117E+01  0.882E+00
   9.860  0.117E+01  0.881E+00
   9.870  0.118E+01  0.882E+00
   9.880  0.118E+01  0.885E+00
   9.890  0.119E+01  0.891E+00
   9.900  0.120E+01  0.897E+00
   9.910  0.120E+01  0.901E+00
   9.920  0.120E+01  0.897E+00
   9.930  0.118E+01  0.880E+00
   9.940  0.116E+01  0.865E+00
   9.950  0.114E+01  0.853E+00
   9.960  0.113E+01  0.842E+00
   9.970  0.112E+01  0.834E+00
   9.980  0.111E+01  0.827E+00
   9.990  0.110E+01  0.819E+00
  10.000  0.110E+01  0.813E+00
  10.010  0.109E+01  0.807E+00
  10.020  0.109E+01  0.802E+00
  10.030  0.108E+01  0.797E+00
  10.040  0.108E+01  0.793E+00
  10.050  0.108E+01  0.790E+00
  10.060  0.108E+01  0.789E+00
  10.070  0.108E+01  0.789E+00
  10.080  0.109E+01  0.795E+00
  10.090  0.111E+01  0.808E+00
  10.100  0.115E+01  0.825E+00
  10.110  0.118E+01  0.845E+00
  10.120  0.122E+01  0.868E+00
  10.130  0.125E+01  0.884E+00
  10.140  0.128E+01  0.898E+00
  10.150  0.130E+01  0.909E+00
  10.160  0.132E+01  0.917E+00
  10.170  0.133E+01  0.923E+00
  10.180  0.134E+01  0.927E+00
  10.190  0.135E+01  0.930E+00
  10.200  0.135E+01  0.933E+00
  10.210  0.137E+01  0.942E+00
  10.220  0.139E+01  0.959E+00
  10.230  0.140E+01  0.963E+00
  10.240  0.141E+01  0.969E+00
  10.250  0.142E+01  0.976E+00
  10.260  0.144E+01  0.986E+00
  10.270  0.146E+01  0.999E+00
  10.280  0.149E+01  0.102E+01
  10.290  0.153E+01  0.104E+01
  10.300  0.156E+01  0.106E+01
  10.310  0.158E+01  0.108E+01
  10.320  0.160E+01  0.109E+01
  10.330  0.160E+01  0.109E+01
  10.340  0.159E+01  0.109E+01
  10.350  0.157E+01  0.107E+01
  10.360  0.153E+01  0.105E+01
  10.370  0.150E+01  0.102E+01
  10.380  0.149E+01  0.102E+01
  10.390  0.147E+01  0.100E+01
  10.400  0.143E+01  0.974E+00
  10.410  0.138E+01  0.938E+00
  10.420  0.132E+01  0.897E+00
  10.430  0.126E+01  0.860E+00
  10.440  0.123E+01  0.836E+00
  10.450  0.120E+01  0.821E+00
  10.460  0.119E+01  0.810E+00
  10.470  0.118E+01  0.803E+00
  10.480  0.117E+01  0.797E+00
  10.490  0.117E+01  0.797E+00
  10.500  0.118E+01  0.802E+00
  10.510  0.120E+01  0.811E+00
  10.520  0.122E+01  0.825E+00
  10.530  0.124E+01  0.832E+00
  10.540  0.123E+01  0.828E+00
  10.550  0.121E+01  0.821E+00
  10.560  0.120E+01  0.819E+00
  10.570  0.120E+01  0.820E+00
  10.580  0.120E+01  0.821E+00
  10.590  0.120E+01  0.821E+00
  10.600  0.120E+01  0.820E+00
  10.610  0.120E+01  0.819E+00
  10.620  0.119E+01  0.818E+00
  10.630  0.119E+01  0.816E+00
  10.640  0.118E+01  0.813E+00
  10.650  0.117E+01  0.810E+00
  10.660  0.117E+01  0.807E+00
  10.670  0.116E+01  0.805E+00
  10.680  0.116E+01  0.804E+00
  10.690  0.116E+01  0.806E+00
  10.700  0.117E+01  0.810E+00
  10.710  0.118E+01  0.816E+00
  10.720  0.119E+01  0.825E+00
  10.730  0.121E+01  0.837E+00
  10.740  0.123E+01  0.852E+00
  10.750  0.127E+01  0.872E+00
  10.760  0.128E+01  0.881E+00
  10.770  0.129E+01  0.885E+00
  10.780  0.130E+01  0.892E+00
  10.790  0.131E+01  0.898E+00
  10.800  0.132E+01  0.899E+00
  10.810  0.132E+01  0.897E+00
  10.820  0.131E+01  0.890E+00
  10.830  0.131E+01  0.888E+00
  10.840  0.131E+01  0.895E+00
  10.850  0.133E+01  0.913E+00
  10.860  0.137E+01  0.945E+00
  10.870  0.142E+01  0.984E+00
  10.880  0.142E+01  0.979E+00
  10.890  0.140E+01  0.960E+00
  10.900  0.137E+01  0.939E+00
  10.910  0.135E+01  0.920E+00
  10.920  0.133E+01  0.904E+00
  10.930  0.131E+01  0.892E+00
  10.940  0.130E+01  0.883E+00
  10.950  0.130E+01  0.878E+00
  10.960  0.129E+01  0.875E+00
  10.970  0.130E+01  0.876E+00
  10.980  0.130E+01  0.877E+00
  10.990  0.129E+01  0.874E+00
  11.000  0.129E+01  0.869E+00
  11.010  0.127E+01  0.861E+00
  11.020  0.126E+01  0.849E+00
  11.030  0.124E+01  0.836E+00
  11.040  0.125E+01  0.846E+00
  11.050  0.124E+01  0.832E+00
  11.060  0.123E+01  0.822E+00
  11.070  0.122E+01  0.814E+00
  11.080  0.121E+01  0.806E+00
  11.090  0.120E+01  0.798E+00
  11.100  0.119E+01  0.790E+00
  11.110  0.117E+01  0.782E+00
  11.120  0.116E+01  0.773E+00
  11.130  0.115E+01  0.763E+00
  11.140  0.113E+01  0.753E+00
  11.150  0.112E+01  0.748E+00
  11.160  0.117E+01  0.772E+00
  11.170  0.117E+01  0.775E+00
  11.180  0.118E+01  0.778E+00
  11.190  0.118E+01  0.780E+00
  11.200  0.119E+01  0.781E+00
  11.210  0.119E+01  0.781E+00
  11.220  0.119E+01  0.780E+00
  11.230  0.118E+01  0.778E+00
  11.240  0.118E+01  0.775E+00
  11.250  0.118E+01  0.771E+00
  11.260  0.116E+01  0.760E+00
  11.270  0.116E+01  0.754E+00
  11.280  0.115E+01  0.749E+00
  11.290  0.115E+01  0.744E+00
  11.300  0.114E+01  0.739E+00
  11.310  0.113E+01  0.734E+00
  11.320  0.113E+01  0.728E+00
  11.330  0.112E+01  0.722E+00
  11.340  0.111E+01  0.716E+00
  11.350  0.110E+01  0.710E+00
  11.360  0.109E+01  0.705E+00
  11.370  0.109E+01  0.701E+00
  11.380  0.108E+01  0.697E+00
  11.390  0.108E+01  0.693E+00
  11.400  0.107E+01  0.690E+00
  11.410  0.107E+01  0.687E+00
  11.420  0.106E+01  0.684E+00
  11.430  0.106E+01  0.681E+00
  11.440  0.106E+01  0.678E+00
  11.450  0.105E+01  0.674E+00
  11.460  0.104E+01  0.670E+00
  11.470  0.104E+01  0.669E+00
  11.480  0.104E+01  0.667E+00
  11.490  0.104E+01  0.667E+00
  11.500  0.103E+01  0.666E+00
  11.510  0.103E+01  0.665E+00
  11.520  0.103E+01  0.665E+00
  11.530  0.104E+01  0.665E+00
  11.540  0.104E+01  0.665E+00
  11.550  0.104E+01  0.664E+00
  11.560  0.104E+01  0.664E+00
  11.570  0.104E+01  0.664E+00
  11.580  0.104E+01  0.665E+00
  11.590  0.105E+01  0.668E+00
  11.600  0.105E+01  0.672E+00
  11.610  0.106E+01  0.677E+00
  11.620  0.107E+01  0.684E+00
  11.630  0.109E+01  0.693E+00
  11.640  0.110E+01  0.703E+00
  11.650  0.112E+01  0.714E+00
  11.660  0.114E+01  0.724E+00
  11.670  0.115E+01  0.731E+00
  11.680  0.116E+01  0.735E+00
  11.690  0.116E+01  0.737E+00
  11.700  0.117E+01  0.737E+00
  11.710  0.116E+01  0.734E+00
  11.720  0.116E+01  0.729E+00
  11.730  0.121E+01  0.754E+00
  11.740  0.117E+01  0.730E+00
  11.750  0.108E+01  0.681E+00
  11.760  0.102E+01  0.643E+00
  11.770  0.980E+00  0.620E+00
  11.780  0.966E+00  0.611E+00
  11.790  0.963E+00  0.609E+00
  11.800  0.959E+00  0.607E+00
  11.810  0.954E+00  0.604E+00
  11.820  0.950E+00  0.602E+00
  11.830  0.953E+00  0.604E+00
  11.840  0.969E+00  0.615E+00
  11.850  0.998E+00  0.637E+00
  11.860  0.103E+01  0.660E+00
  11.870  0.101E+01  0.649E+00
  11.880  0.993E+00  0.639E+00
  11.890  0.981E+00  0.632E+00
  11.900  0.941E+00  0.606E+00
  11.910  0.913E+00  0.586E+00
  11.920  0.896E+00  0.574E+00
  11.930  0.889E+00  0.568E+00
  11.940  0.890E+00  0.568E+00
  11.950  0.893E+00  0.569E+00
  11.960  0.897E+00  0.571E+00
  11.970  0.902E+00  0.573E+00
  11.980  0.909E+00  0.576E+00
  11.990  0.917E+00  0.579E+00
  12.000  0.926E+00  0.584E+00
  12.010  0.937E+00  0.590E+00
  12.020  0.949E+00  0.597E+00
  12.030  0.961E+00  0.603E+00
  12.040  0.970E+00  0.608E+00
  12.050  0.978E+00  0.612E+00
  12.060  0.974E+00  0.609E+00
  12.070  0.986E+00  0.614E+00
  12.080  0.100E+01  0.619E+00
  12.090  0.101E+01  0.626E+00
  12.100  0.103E+01  0.632E+00
  12.110  0.104E+01  0.635E+00
  12.120  0.105E+01  0.636E+00
  12.130  0.105E+01  0.635E+00
  12.140  0.105E+01  0.633E+00
  12.150  0.105E+01  0.628E+00
  12.160  0.104E+01  0.623E+00
  12.170  0.103E+01  0.616E+00
  12.180  0.102E+01  0.608E+00
  12.190  0.100E+01  0.600E+00
  12.200  0.988E+00  0.592E+00
  12.210  0.975E+00  0.585E+00
  12.220  0.964E+00  0.580E+00
  12.230  0.964E+00  0.579E+00
  12.240  0.964E+00  0.577E+00
  12.250  0.964E+00  0.576E+00
  12.260  0.964E+00  0.575E+00
  12.270  0.964E+00  0.574E+00
  12.280  0.964E+00  0.573E+00
  12.290  0.964E+00  0.572E+00
  12.300  0.965E+00  0.571E+00
  12.310  0.965E+00  0.570E+00
  12.320  0.964E+00  0.569E+00
  12.330  0.964E+00  0.568E+00
  12.340  0.963E+00  0.566E+00
  12.350  0.962E+00  0.565E+00
  12.360  0.961E+00  0.563E+00
  12.370  0.960E+00  0.562E+00
  12.380  0.959E+00  0.560E+00
  12.390  0.959E+00  0.559E+00
  12.400  0.961E+00  0.559E+00
  12.410  0.964E+00  0.559E+00
  12.420  0.968E+00  0.560E+00
  12.430  0.974E+00  0.562E+00
  12.440  0.981E+00  0.565E+00
  12.450  0.987E+00  0.568E+00
  12.460  0.987E+00  0.567E+00
  12.470  0.982E+00  0.563E+00
  12.480  0.972E+00  0.558E+00
  12.490  0.962E+00  0.553E+00
  12.500  0.953E+00  0.548E+00
  12.510  0.945E+00  0.543E+00
  12.520  0.936E+00  0.538E+00
  12.530  0.927E+00  0.532E+00
  12.540  0.917E+00  0.527E+00
  12.550  0.908E+00  0.522E+00
  12.560  0.899E+00  0.517E+00
  12.570  0.890E+00  0.511E+00
  12.580  0.880E+00  0.506E+00
  12.590  0.871E+00  0.501E+00
  12.600  0.862E+00  0.496E+00
  12.610  0.853E+00  0.491E+00
  12.620  0.845E+00  0.487E+00
  12.630  0.836E+00  0.482E+00
  12.640  0.826E+00  0.476E+00
  12.650  0.815E+00  0.471E+00
  12.660  0.804E+00  0.466E+00
  12.670  0.799E+00  0.463E+00
  12.680  0.794E+00  0.460E+00
  12.690  0.790E+00  0.458E+00
  12.700  0.784E+00  0.455E+00
  12.710  0.779E+00  0.453E+00
  12.720  0.774E+00  0.450E+00
  12.730  0.768E+00  0.447E+00
  12.740  0.763E+00  0.444E+00
  12.750  0.757E+00  0.441E+00
  12.760  0.751E+00  0.438E+00
  12.770  0.745E+00  0.435E+00
  12.780  0.736E+00  0.430E+00
  12.790  0.715E+00  0.418E+00
  12.800  0.705E+00  0.412E+00
  12.810  0.698E+00  0.409E+00
  12.820  0.692E+00  0.405E+00
  12.830  0.686E+00  0.402E+00
  12.840  0.680E+00  0.399E+00
  12.850  0.675E+00  0.397E+00
  12.860  0.670E+00  0.394E+00
  12.870  0.665E+00  0.391E+00
  12.880  0.661E+00  0.389E+00
  12.890  0.657E+00  0.387E+00
  12.900  0.653E+00  0.385E+00
  12.910  0.649E+00  0.383E+00
  12.920  0.646E+00  0.382E+00
  12.930  0.643E+00  0.380E+00
  12.940  0.641E+00  0.379E+00
  12.950  0.639E+00  0.378E+00
  12.960  0.637E+00  0.377E+00
  12.970  0.635E+00  0.376E+00
  12.980  0.634E+00  0.376E+00
  12.990  0.633E+00  0.376E+00
  13.000  0.632E+00  0.376E+00
  13.010  0.631E+00  0.376E+00
  13.020  0.631E+00  0.377E+00
  13.030  0.633E+00  0.379E+00
  13.040  0.637E+00  0.381E+00
  13.050  0.644E+00  0.386E+00
  13.060  0.653E+00  0.393E+00
  13.070  0.661E+00  0.398E+00
  13.080  0.666E+00  0.401E+00
  13.090  0.668E+00  0.402E+00
  13.100  0.667E+00  0.400E+00
  13.110  0.663E+00  0.396E+00
  13.120  0.656E+00  0.390E+00
  13.130  0.646E+00  0.382E+00
  13.140  0.633E+00  0.372E+00
  13.150  0.620E+00  0.362E+00
  13.160  0.609E+00  0.354E+00
  13.170  0.601E+00  0.347E+00
  13.180  0.596E+00  0.343E+00
  13.190  0.593E+00  0.340E+00
  13.200  0.593E+00  0.339E+00
  13.210  0.588E+00  0.335E+00
  13.220  0.580E+00  0.331E+00
  13.230  0.572E+00  0.327E+00
  13.240  0.565E+00  0.323E+00
  13.250  0.558E+00  0.319E+00
  13.260  0.551E+00  0.316E+00
  13.270  0.544E+00  0.312E+00
  13.280  0.538E+00  0.309E+00
  13.290  0.533E+00  0.306E+00
  13.300  0.528E+00  0.303E+00
  13.310  0.523E+00  0.300E+00
  13.320  0.518E+00  0.298E+00
  13.330  0.514E+00  0.295E+00
  13.340  0.510E+00  0.293E+00
  13.350  0.507E+00  0.291E+00
  13.360  0.504E+00  0.289E+00
  13.370  0.501E+00  0.287E+00
  13.380  0.499E+00  0.285E+00
  13.390  0.497E+00  0.283E+00
  13.400  0.495E+00  0.282E+00
  13.410  0.494E+00  0.280E+00
  13.420  0.493E+00  0.279E+00
  13.430  0.495E+00  0.279E+00
  13.440  0.507E+00  0.282E+00
  13.450  0.530E+00  0.287E+00
  13.460  0.564E+00  0.295E+00
  13.470  0.610E+00  0.306E+00
  13.480  0.654E+00  0.316E+00
  13.490  0.682E+00  0.322E+00
  13.500  0.694E+00  0.324E+00
  13.510  0.690E+00  0.322E+00
  13.520  0.671E+00  0.315E+00
  13.530  0.635E+00  0.304E+00
  13.540  0.604E+00  0.295E+00
  13.550  0.581E+00  0.288E+00
  13.560  0.550E+00  0.280E+00
  13.570  0.517E+00  0.271E+00
  13.580  0.497E+00  0.265E+00
  13.590  0.483E+00  0.261E+00
  13.600  0.470E+00  0.256E+00
  13.610  0.457E+00  0.253E+00
  13.620  0.446E+00  0.249E+00
  13.630  0.435E+00  0.245E+00
  13.640  0.424E+00  0.241E+00
  13.650  0.412E+00  0.237E+00
  13.660  0.400E+00  0.233E+00
  13.670  0.387E+00  0.228E+00
  13.680  0.374E+00  0.223E+00
  13.690  0.360E+00  0.218E+00
  13.700  0.345E+00  0.213E+00
  13.710  0.331E+00  0.207E+00
  13.720  0.316E+00  0.202E+00
  13.730  0.303E+00  0.196E+00
  13.740  0.290E+00  0.192E+00
  13.750  0.280E+00  0.187E+00
  13.760  0.271E+00  0.184E+00
  13.770  0.263E+00  0.181E+00
  13.780  0.257E+00  0.178E+00
  13.790  0.253E+00  0.176E+00
  13.800  0.251E+00  0.175E+00
  13.810  0.250E+00  0.174E+00
  13.820  0.248E+00  0.173E+00
  13.830  0.247E+00  0.172E+00
  13.840  0.246E+00  0.172E+00
  13.850  0.245E+00  0.171E+00
  13.860  0.243E+00  0.170E+00
  13.870  0.242E+00  0.170E+00
  13.880  0.241E+00  0.169E+00
  13.890  0.240E+00  0.168E+00
  13.900  0.239E+00  0.167E+00
  13.910  0.237E+00  0.167E+00
  13.920  0.236E+00  0.166E+00
  13.930  0.235E+00  0.165E+00
  13.940  0.235E+00  0.165E+00
  13.950  0.235E+00  0.165E+00
  13.960  0.234E+00  0.164E+00
  13.970  0.232E+00  0.163E+00
  13.980  0.229E+00  0.161E+00
  13.990  0.226E+00  0.159E+00
  14.000  0.221E+00  0.155E+00
  14.010  0.216E+00  0.152E+00
  14.020  0.210E+00  0.148E+00
  14.030  0.203E+00  0.143E+00
  14.040  0.194E+00  0.138E+00
  14.050  0.191E+00  0.135E+00
  14.060  0.188E+00  0.134E+00
  14.070  0.186E+00  0.132E+00
  14.080  0.184E+00  0.131E+00
  14.090  0.186E+00  0.132E+00
  14.100  0.188E+00  0.134E+00
  14.110  0.190E+00  0.136E+00
  14.120  0.191E+00  0.137E+00
  14.130  0.193E+00  0.138E+00
  14.140  0.190E+00  0.136E+00
  14.150  0.187E+00  0.135E+00
  14.160  0.185E+00  0.133E+00
  14.170  0.182E+00  0.131E+00
  14.180  0.179E+00  0.129E+00
  14.190  0.176E+00  0.127E+00
  14.200  0.174E+00  0.126E+00
  14.210  0.171E+00  0.124E+00
  14.220  0.169E+00  0.122E+00
  14.230  0.166E+00  0.121E+00
  14.240  0.164E+00  0.119E+00
  14.250  0.161E+00  0.117E+00
  14.260  0.159E+00  0.116E+00
  14.270  0.156E+00  0.114E+00
  14.280  0.154E+00  0.112E+00
  14.290  0.151E+00  0.111E+00
  14.300  0.149E+00  0.109E+00
  14.310  0.147E+00  0.108E+00
  14.320  0.145E+00  0.106E+00
  14.330  0.142E+00  0.105E+00
  14.340  0.140E+00  0.103E+00
  14.350  0.138E+00  0.102E+00
  14.360  0.136E+00  0.100E+00
  14.370  0.134E+00  0.991E-01
  14.380  0.132E+00  0.977E-01
  14.390  0.130E+00  0.964E-01
  14.400  0.128E+00  0.950E-01
  14.410  0.126E+00  0.937E-01
  14.420  0.124E+00  0.924E-01
  14.430  0.122E+00  0.912E-01
  14.440  0.120E+00  0.899E-01
  14.450  0.119E+00  0.887E-01
  14.460  0.117E+00  0.875E-01
  14.470  0.115E+00  0.864E-01
  14.480  0.113E+00  0.852E-01
  14.490  0.112E+00  0.841E-01
  14.500  0.110E+00  0.830E-01
  14.510  0.108E+00  0.819E-01
  14.520  0.107E+00  0.808E-01
  14.530  0.105E+00  0.798E-01
  14.540  0.104E+00  0.788E-01
  14.550  0.102E+00  0.778E-01
  14.560  0.101E+00  0.769E-01
  14.570  0.996E-01  0.759E-01
  14.580  0.983E-01  0.750E-01
  14.590  0.970E-01  0.742E-01
  14.600  0.958E-01  0.733E-01
  14.610  0.946E-01  0.726E-01
  14.620  0.935E-01  0.718E-01
  14.630  0.924E-01  0.711E-01
  14.640  0.914E-01  0.704E-01
  14.650  0.904E-01  0.698E-01
  14.660  0.895E-01  0.692E-01
  14.670  0.886E-01  0.687E-01
  14.680  0.878E-01  0.682E-01
  14.690  0.871E-01  0.677E-01
  14.700  0.864E-01  0.672E-01
  14.710  0.857E-01  0.669E-01
  14.720  0.851E-01  0.665E-01
  14.730  0.846E-01  0.662E-01
  14.740  0.841E-01  0.659E-01
  14.750  0.837E-01  0.657E-01
  14.760  0.834E-01  0.655E-01
  14.770  0.829E-01  0.652E-01
  14.780  0.823E-01  0.648E-01
  14.790  0.819E-01  0.646E-01
  14.800  0.818E-01  0.645E-01
  14.810  0.819E-01  0.646E-01
  14.820  0.822E-01  0.649E-01
  14.830  0.827E-01  0.654E-01
  14.840  0.833E-01  0.658E-01
  14.850  0.838E-01  0.662E-01
  14.860  0.842E-01  0.666E-01
  14.870  0.845E-01  0.668E-01
  14.880  0.847E-01  0.670E-01
  14.890  0.848E-01  0.671E-01
  14.900  0.848E-01  0.671E-01
  14.910  0.848E-01  0.670E-01
  14.920  0.846E-01  0.669E-01
  14.930  0.844E-01  0.666E-01
  14.940  0.840E-01  0.663E-01
  14.950  0.836E-01  0.659E-01
  14.960  0.830E-01  0.655E-01
  14.970  0.824E-01  0.650E-01
  14.980  0.820E-01  0.646E-01
  14.990  0.816E-01  0.642E-01
  15.000  0.813E-01  0.640E-01
  15.010  0.810E-01  0.637E-01
  15.020  0.800E-01  0.627E-01
  15.030  0.779E-01  0.611E-01
  15.040  0.742E-01  0.582E-01
  15.050  0.691E-01  0.542E-01
  15.060  0.630E-01  0.494E-01
  15.070  0.560E-01  0.440E-01
  15.080  0.481E-01  0.379E-01
  15.090  0.405E-01  0.321E-01
  15.100  0.386E-01  0.307E-01
  15.110  0.367E-01  0.293E-01
  15.120  0.348E-01  0.279E-01
  15.130  0.330E-01  0.266E-01
  15.140  0.312E-01  0.253E-01
  15.150  0.295E-01  0.240E-01
  15.160  0.278E-01  0.227E-01
  15.170  0.262E-01  0.215E-01
  15.180  0.246E-01  0.202E-01
  15.190  0.231E-01  0.191E-01
  15.200  0.216E-01  0.179E-01
  15.210  0.202E-01  0.168E-01
  15.220  0.188E-01  0.157E-01
  15.230  0.175E-01  0.147E-01
  15.240  0.162E-01  0.136E-01
  15.250  0.150E-01  0.127E-01
  15.260  0.138E-01  0.117E-01
  15.270  0.126E-01  0.108E-01
  15.280  0.116E-01  0.989E-02
  15.290  0.105E-01  0.904E-02
  15.300  0.954E-02  0.822E-02
  15.310  0.860E-02  0.744E-02
  15.320  0.770E-02  0.670E-02
  15.330  0.686E-02  0.599E-02
  15.340  0.607E-02  0.531E-02
  15.350  0.532E-02  0.468E-02
  15.360  0.463E-02  0.408E-02
  15.370  0.398E-02  0.353E-02
  15.380  0.338E-02  0.301E-02
  15.390  0.283E-02  0.253E-02
  15.400  0.233E-02  0.209E-02
  15.410  0.188E-02  0.169E-02
  15.420  0.147E-02  0.133E-02
  15.430  0.112E-02  0.101E-02
  15.440  0.814E-03  0.739E-03
  15.450  0.556E-03  0.507E-03
  15.460  0.348E-03  0.318E-03
  15.470  0.188E-03  0.173E-03
  15.480  0.769E-04  0.709E-04
  15.490  0.147E-04  0.136E-04
  15.500  0.000E+00  0.000E+00
